# File: 20-10-10T004113.ast
# NOTEA     = Foam Pyramid Horn
# NOTEB     = Spectral Integration
# OBSERVER  = Schultz
# DEVICE    = rtl=0,bias=0
# DATADIR   = ../data/
# SITE      = Foam Pyramid Horn
# CITY      = Chicago
# REGION    = Illinois
# COUNTRY   = US
# TELTYPE   = Foam Pyramid Horn
# FRAME     = TOPO
# GAIN1     = 49.6
# GAIN2     = 49.6
# GAIN3     = 49.6
# GAIN4     = 0.0
# Count     = 490000
# CenterFreq= 1420400000.0
# Bandwidth = 2400000.0
# Duration  = 305.831814
# DeltaX    = 5859.375
# TSYS      = 200.0
# TRX       = 100.0
# TRMS      = 2.0
# TINT      = 1.0
# KPERC     = 100.0
# GAINFACT  = 1.0
# BUNIT     = Counts
# NCHAN     = 1024
# NSPEC     = 1
# NTIME     = 0
# NSAMPLES  = 0
# EPEAK     = 4.10875183718
# ERMS      = 0.995973393526
# EMJD      = 58568.808999981004 
# REFCHAN   = 512.0
# REFSAMPL  = 256.0
# NAVE      = 700
# NMEDIAN   = 1024
# Fft_rate  = 5000
# UTC       = 2020-10-10 00:41:13.818596
# SECONDS   =       0.0000000000 
# LST       = 20:07:02.700
# AZ        = 180.0
# EL        = 40.0
# TELLON    = -87:37:48.000
# TELLAT    = +41:52:01.000
# RA        = 20:04:49.010
# DEC       = -08:16:21.800
# GALLON    = 33:47:01.10
# GALLAT    = -20:02:52.00
# ALT_SUN   = -16:20:41.8
# AZ_SUN    = +275:39:04.2
# ETAA      = 0.8
# ETAB      = 0.99
# POLANGLE  = 0.0
# TELSIZEAM = 1.0
# TELSIZEBM = 1.0
# AST_VERS  = 05.01
0000 1419201171 10274.8867
0001 1419203515 10214.4004
0002 1419205859 10235.1943
0003 1419208203 10142.5166
0004 1419210546 10111.8975
0005 1419212890 10004.3535
0006 1419215234 10023.2334
0007 1419217578 9932.7676
0008 1419219921 9930.4424
0009 1419222265 9869.4502
0010 1419224609 9844.9961
0011 1419226953 9839.3916
0012 1419229296 9817.2676
0013 1419231640 9743.6816
0014 1419233984 9719.1279
0015 1419236328 9672.8652
0016 1419238671 9676.2588
0017 1419241015 9642.7793
0018 1419243359 9629.7158
0019 1419245703 9584.6182
0020 1419248046 9595.4365
0021 1419250390 9571.2422
0022 1419252734 9547.4443
0023 1419255078 9576.2471
0024 1419257421 9556.8115
0025 1419259765 9601.5488
0026 1419262109 9580.1582
0027 1419264453 9627.4170
0028 1419266796 9590.5771
0029 1419269140 9610.6133
0030 1419271484 9618.9707
0031 1419273828 9622.9307
0032 1419276171 9674.9287
0033 1419278515 9697.5889
0034 1419280859 9742.7842
0035 1419283203 9776.3096
0036 1419285546 9792.2744
0037 1419287890 9853.1572
0038 1419290234 9853.7998
0039 1419292578 9964.0127
0040 1419294921 10006.1006
0041 1419297265 10099.1582
0042 1419299609 10143.1660
0043 1419301953 10221.2070
0044 1419304296 10288.7354
0045 1419306640 10356.6777
0046 1419308984 10475.9482
0047 1419311328 10554.8643
0048 1419313671 10616.7734
0049 1419316015 10726.9375
0050 1419318359 10836.6611
0051 1419320703 10951.4912
0052 1419323046 11043.2432
0053 1419325390 11208.4805
0054 1419327734 11298.1016
0055 1419330078 11428.0439
0056 1419332421 11563.7471
0057 1419334765 11688.0918
0058 1419337109 11818.3125
0059 1419339453 11979.6201
0060 1419341796 12082.7637
0061 1419344140 12285.7764
0062 1419346484 12399.6973
0063 1419348828 12522.3633
0064 1419351171 12697.5537
0065 1419353515 12896.6406
0066 1419355859 13036.8076
0067 1419358203 13207.5225
0068 1419360546 13415.4736
0069 1419362890 13665.6523
0070 1419365234 13685.2520
0071 1419367578 13863.9697
0072 1419369921 14057.8926
0073 1419372265 14200.4268
0074 1419374609 14446.1406
0075 1419376953 14623.6309
0076 1419379296 14756.4170
0077 1419381640 14920.3066
0078 1419383984 15086.4902
0079 1419386328 15293.1787
0080 1419388671 15600.5986
0081 1419391015 15862.9160
0082 1419393359 15891.1357
0083 1419395703 16045.4541
0084 1419398046 16200.8877
0085 1419400390 16370.3096
0086 1419402734 16597.0098
0087 1419405078 16764.5820
0088 1419407421 17017.4180
0089 1419409765 17168.4023
0090 1419412109 17342.3301
0091 1419414453 17506.2715
0092 1419416796 17752.5469
0093 1419419140 17915.5156
0094 1419421484 18104.3652
0095 1419423828 18249.0742
0096 1419426171 18511.5332
0097 1419428515 18677.9102
0098 1419430859 18799.7852
0099 1419433203 19030.9531
0100 1419435546 19254.2676
0101 1419437890 19442.8828
0102 1419440234 19635.1660
0103 1419442578 19810.3008
0104 1419444921 19960.4316
0105 1419447265 20125.3594
0106 1419449609 20351.9844
0107 1419451953 20547.8672
0108 1419454296 20676.5391
0109 1419456640 20853.7812
0110 1419458984 21066.2637
0111 1419461328 21272.9258
0112 1419463671 21454.7070
0113 1419466015 21626.8418
0114 1419468359 21823.0430
0115 1419470703 21952.7891
0116 1419473046 22142.5488
0117 1419475390 22237.9258
0118 1419477734 22391.5801
0119 1419480078 22639.5176
0120 1419482421 22798.9160
0121 1419484765 23022.5723
0122 1419487109 23156.8984
0123 1419489453 23454.7109
0124 1419491796 23539.9043
0125 1419494140 23664.1426
0126 1419496484 23868.5410
0127 1419498828 24005.6777
0128 1419501171 24142.9414
0129 1419503515 24256.1582
0130 1419505859 24490.1875
0131 1419508203 24697.3047
0132 1419510546 24811.7031
0133 1419512890 24924.4668
0134 1419515234 25094.4863
0135 1419517578 25260.3535
0136 1419519921 25424.0781
0137 1419522265 25597.3965
0138 1419524609 25662.7910
0139 1419526953 25836.2070
0140 1419529296 25927.9473
0141 1419531640 26145.0293
0142 1419533984 26225.2363
0143 1419536328 26419.9609
0144 1419538671 26545.5664
0145 1419541015 26643.8887
0146 1419543359 26818.9707
0147 1419545703 26867.0098
0148 1419548046 26993.4961
0149 1419550390 27139.4043
0150 1419552734 27264.4453
0151 1419555078 27451.1523
0152 1419557421 27606.1562
0153 1419559765 27775.2773
0154 1419562109 27701.7949
0155 1419564453 27885.6172
0156 1419566796 27977.6816
0157 1419569140 28235.6035
0158 1419571484 28222.2715
0159 1419573828 28308.6191
0160 1419576171 28495.2871
0161 1419578515 28589.2031
0162 1419580859 28744.5039
0163 1419583203 28750.7402
0164 1419585546 28924.1777
0165 1419587890 28945.6641
0166 1419590234 29109.8789
0167 1419592578 29175.3262
0168 1419594921 29175.6992
0169 1419597265 29354.5312
0170 1419599609 29337.3164
0171 1419601953 29615.4766
0172 1419604296 29604.2461
0173 1419606640 29567.8223
0174 1419608984 29841.0508
0175 1419611328 29885.2773
0176 1419613671 30038.4082
0177 1419616015 30013.9297
0178 1419618359 30053.1562
0179 1419620703 30149.5469
0180 1419623046 30211.5879
0181 1419625390 30341.1582
0182 1419627734 30407.6348
0183 1419630078 30320.7227
0184 1419632421 30489.7695
0185 1419634765 30573.4727
0186 1419637109 30547.1602
0187 1419639453 30614.8359
0188 1419641796 30711.1562
0189 1419644140 30715.5254
0190 1419646484 30712.0566
0191 1419648828 30855.5547
0192 1419651171 30875.6309
0193 1419653515 30920.2871
0194 1419655859 31043.6543
0195 1419658203 31220.0176
0196 1419660546 31146.2637
0197 1419662890 31153.4727
0198 1419665234 31159.4395
0199 1419667578 31087.0254
0200 1419669921 31170.4082
0201 1419672265 31324.1445
0202 1419674609 31241.2812
0203 1419676953 31367.0527
0204 1419679296 31378.8262
0205 1419681640 31325.9355
0206 1419683984 31399.1016
0207 1419686328 31460.4180
0208 1419688671 31377.2793
0209 1419691015 31350.7559
0210 1419693359 31434.0996
0211 1419695703 31364.4219
0212 1419698046 31493.9863
0213 1419700390 31634.9414
0214 1419702734 31584.5703
0215 1419705078 31558.1758
0216 1419707421 31605.1875
0217 1419709765 31533.1582
0218 1419712109 31618.1680
0219 1419714453 31480.3008
0220 1419716796 31648.6270
0221 1419719140 31614.2422
0222 1419721484 31608.5527
0223 1419723828 31580.7168
0224 1419726171 31597.2695
0225 1419728515 31491.3770
0226 1419730859 31553.5801
0227 1419733203 31616.1504
0228 1419735546 31554.5469
0229 1419737890 31592.9121
0230 1419740234 31636.3262
0231 1419742578 31508.9414
0232 1419744921 31608.8340
0233 1419747265 31486.2578
0234 1419749609 31581.8477
0235 1419751953 31512.4824
0236 1419754296 31576.1953
0237 1419756640 31456.9785
0238 1419758984 31511.5059
0239 1419761328 31473.0039
0240 1419763671 31527.3047
0241 1419766015 31398.1934
0242 1419768359 31603.7031
0243 1419770703 31388.1641
0244 1419773046 31315.7930
0245 1419775390 31334.4805
0246 1419777734 31324.7598
0247 1419780078 31401.5039
0248 1419782421 31331.7246
0249 1419784765 31257.5566
0250 1419787109 31255.3086
0251 1419789453 31240.3145
0252 1419791796 31215.7070
0253 1419794140 31173.3027
0254 1419796484 31111.6660
0255 1419798828 31125.2441
0256 1419801171 31145.5098
0257 1419803515 31044.6074
0258 1419805859 30995.3770
0259 1419808203 31056.1172
0260 1419810546 31038.4492
0261 1419812890 30968.8848
0262 1419815234 30969.4902
0263 1419817578 30972.5156
0264 1419819921 30899.2520
0265 1419822265 30908.6270
0266 1419824609 30872.8770
0267 1419826953 30800.6172
0268 1419829296 30765.1621
0269 1419831640 30752.0391
0270 1419833984 30744.6133
0271 1419836328 30772.2832
0272 1419838671 30638.3730
0273 1419841015 30609.2363
0274 1419843359 30676.8164
0275 1419845703 30614.9805
0276 1419848046 30565.0879
0277 1419850390 30544.2012
0278 1419852734 30519.5664
0279 1419855078 30515.4668
0280 1419857421 30538.2695
0281 1419859765 30473.1582
0282 1419862109 30472.9941
0283 1419864453 30474.6484
0284 1419866796 30342.4199
0285 1419869140 30346.4570
0286 1419871484 30354.6855
0287 1419873828 30354.5996
0288 1419876171 30367.7109
0289 1419878515 30298.8906
0290 1419880859 30162.7109
0291 1419883203 30190.8418
0292 1419885546 30096.7500
0293 1419887890 30066.7227
0294 1419890234 30130.5234
0295 1419892578 30156.9141
0296 1419894921 30124.2520
0297 1419897265 30121.6133
0298 1419899609 30068.5566
0299 1419901953 29976.9414
0300 1419904296 29967.8398
0301 1419906640 29950.2305
0302 1419908984 29925.4746
0303 1419911328 29966.9805
0304 1419913671 29885.6855
0305 1419916015 29912.4258
0306 1419918359 29921.4238
0307 1419920703 29999.2344
0308 1419923046 29984.1289
0309 1419925390 29892.6641
0310 1419927734 29841.2461
0311 1419930078 29787.8770
0312 1419932421 29778.8613
0313 1419934765 29889.7676
0314 1419937109 29846.5410
0315 1419939453 29786.0098
0316 1419941796 29773.7852
0317 1419944140 29767.3008
0318 1419946484 29694.2324
0319 1419948828 29813.6387
0320 1419951171 29758.8105
0321 1419953515 29758.7773
0322 1419955859 29678.3652
0323 1419958203 29843.5684
0324 1419960546 29734.7812
0325 1419962890 29760.8242
0326 1419965234 29735.1543
0327 1419967578 29710.2930
0328 1419969921 29683.0781
0329 1419972265 29807.3594
0330 1419974609 29787.2715
0331 1419976953 29572.4980
0332 1419979296 29613.5879
0333 1419981640 29749.2402
0334 1419983984 29713.2520
0335 1419986328 29731.1758
0336 1419988671 29590.9004
0337 1419991015 29744.1758
0338 1419993359 29608.4668
0339 1419995703 29751.6113
0340 1419998046 29724.3516
0341 1420000390 29698.0605
0342 1420002734 29683.9199
0343 1420005078 29600.8770
0344 1420007421 29701.9453
0345 1420009765 29785.0527
0346 1420012109 29880.0059
0347 1420014453 29874.2207
0348 1420016796 29807.8086
0349 1420019140 29830.0098
0350 1420021484 29773.3203
0351 1420023828 29811.0723
0352 1420026171 29867.5879
0353 1420028515 29963.6738
0354 1420030859 29908.6328
0355 1420033203 29875.3105
0356 1420035546 29965.6543
0357 1420037890 29991.4668
0358 1420040234 30029.0625
0359 1420042578 29947.3633
0360 1420044921 29905.9219
0361 1420047265 29997.5801
0362 1420049609 29913.6152
0363 1420051953 29979.9707
0364 1420054296 30045.7402
0365 1420056640 30053.3184
0366 1420058984 30175.6211
0367 1420061328 30204.6543
0368 1420063671 30107.2266
0369 1420066015 30283.4746
0370 1420068359 30258.7246
0371 1420070703 30457.2422
0372 1420073046 30454.9727
0373 1420075390 30369.7793
0374 1420077734 30345.5527
0375 1420080078 30460.7871
0376 1420082421 30535.3691
0377 1420084765 30526.2578
0378 1420087109 30532.4805
0379 1420089453 30595.2891
0380 1420091796 30579.8086
0381 1420094140 30518.2207
0382 1420096484 30656.0391
0383 1420098828 30743.7656
0384 1420101171 30627.4629
0385 1420103515 30633.6758
0386 1420105859 30705.7148
0387 1420108203 30902.5215
0388 1420110546 30734.7480
0389 1420112890 30858.5781
0390 1420115234 30800.6016
0391 1420117578 30946.4238
0392 1420119921 31081.1367
0393 1420122265 31172.5820
0394 1420124609 31155.4922
0395 1420126953 31166.4648
0396 1420129296 31152.3730
0397 1420131640 31245.7207
0398 1420133984 31242.7715
0399 1420136328 31327.8496
0400 1420138671 31402.2754
0401 1420141015 31346.4238
0402 1420143359 31355.1719
0403 1420145703 31569.5938
0404 1420148046 31535.3398
0405 1420150390 31686.9961
0406 1420152734 31690.8887
0407 1420155078 31677.1934
0408 1420157421 31701.2617
0409 1420159765 31865.4902
0410 1420162109 31775.8574
0411 1420164453 31882.5820
0412 1420166796 31935.2051
0413 1420169140 31957.4023
0414 1420171484 32031.0977
0415 1420173828 32041.6504
0416 1420176171 32110.4160
0417 1420178515 32123.1191
0418 1420180859 32127.5840
0419 1420183203 32212.7305
0420 1420185546 32259.5547
0421 1420187890 32323.1875
0422 1420190234 32354.8301
0423 1420192578 32432.2285
0424 1420194921 32429.8125
0425 1420197265 32488.3164
0426 1420199609 32540.5488
0427 1420201953 32712.4473
0428 1420204296 32698.4707
0429 1420206640 32717.7500
0430 1420208984 32877.3477
0431 1420211328 32918.4961
0432 1420213671 32940.1016
0433 1420216015 33033.4141
0434 1420218359 33232.5078
0435 1420220703 33299.3320
0436 1420223046 33232.6445
0437 1420225390 33267.0820
0438 1420227734 33427.8008
0439 1420230078 33377.5039
0440 1420232421 33528.9492
0441 1420234765 33524.7383
0442 1420237109 33674.8086
0443 1420239453 33736.3281
0444 1420241796 33722.1992
0445 1420244140 33844.9648
0446 1420246484 33785.4453
0447 1420248828 33970.4844
0448 1420251171 34069.0078
0449 1420253515 34131.0273
0450 1420255859 34211.8398
0451 1420258203 34258.1914
0452 1420260546 34400.7891
0453 1420262890 34606.3750
0454 1420265234 34516.1289
0455 1420267578 34578.2422
0456 1420269921 34719.8945
0457 1420272265 34828.7070
0458 1420274609 34868.1328
0459 1420276953 35057.9492
0460 1420279296 35127.7227
0461 1420281640 35211.0586
0462 1420283984 35201.1094
0463 1420286328 35386.5625
0464 1420288671 35559.5312
0465 1420291015 35678.3828
0466 1420293359 35675.3984
0467 1420295703 35861.2344
0468 1420298046 35883.5625
0469 1420300390 35959.8984
0470 1420302734 35987.0977
0471 1420305078 36226.1445
0472 1420307421 36139.9023
0473 1420309765 36280.3359
0474 1420312109 36341.0195
0475 1420314453 36456.9219
0476 1420316796 36585.7969
0477 1420319140 36627.0703
0478 1420321484 36733.9336
0479 1420323828 36900.6523
0480 1420326171 37035.4492
0481 1420328515 37098.6719
0482 1420330859 37108.3906
0483 1420333203 37186.2969
0484 1420335546 37386.2383
0485 1420337890 37228.4102
0486 1420340234 37235.6992
0487 1420342578 37075.1055
0488 1420344921 37091.1250
0489 1420347265 36887.7266
0490 1420349609 36702.1172
0491 1420351953 36507.5703
0492 1420354296 36398.0586
0493 1420356640 36391.3086
0494 1420358984 36253.8594
0495 1420361328 36048.1680
0496 1420363671 36002.3867
0497 1420366015 35977.4688
0498 1420368359 35893.1172
0499 1420370703 35826.4336
0500 1420373046 35666.1250
0501 1420375390 35640.9570
0502 1420377734 35543.7617
0503 1420380078 35498.0117
0504 1420382421 35406.1523
0505 1420384765 35520.4805
0506 1420387109 35459.4570
0507 1420389453 35459.4805
0508 1420391796 35390.5938
0509 1420394140 35327.5938
0510 1420396484 35220.6562
0511 1420398828 35118.2812
0512 1420401171 35248.4883
0513 1420403515 35114.4336
0514 1420405859 35124.2148
0515 1420408203 35007.6562
0516 1420410546 35115.1719
0517 1420412890 35180.0312
0518 1420415234 35228.4336
0519 1420417578 35143.1875
0520 1420419921 35152.7617
0521 1420422265 35144.1719
0522 1420424609 35155.1641
0523 1420426953 35050.8164
0524 1420429296 35065.9766
0525 1420431640 34976.0898
0526 1420433984 35017.8242
0527 1420436328 34988.3008
0528 1420438671 34869.8945
0529 1420441015 34869.4805
0530 1420443359 34894.7656
0531 1420445703 34840.5859
0532 1420448046 34720.2930
0533 1420450390 34748.5039
0534 1420452734 34996.8320
0535 1420455078 34869.8828
0536 1420457421 34630.8555
0537 1420459765 34693.8906
0538 1420462109 34720.7305
0539 1420464453 34710.3945
0540 1420466796 34600.3594
0541 1420469140 34618.9609
0542 1420471484 34789.6094
0543 1420473828 34569.4844
0544 1420476171 34677.3594
0545 1420478515 34629.4180
0546 1420480859 34542.8828
0547 1420483203 34610.6953
0548 1420485546 34584.2109
0549 1420487890 34398.2422
0550 1420490234 34383.1484
0551 1420492578 34370.6953
0552 1420494921 34296.9219
0553 1420497265 34227.5977
0554 1420499609 34248.3555
0555 1420501953 34359.8750
0556 1420504296 34316.5742
0557 1420506640 34223.1250
0558 1420508984 33983.3398
0559 1420511328 34324.6406
0560 1420513671 34231.3555
0561 1420516015 33966.0938
0562 1420518359 34130.7695
0563 1420520703 34138.1367
0564 1420523046 34027.7891
0565 1420525390 34011.8086
0566 1420527734 33836.3398
0567 1420530078 33969.3203
0568 1420532421 33820.1445
0569 1420534765 33839.2891
0570 1420537109 33730.2578
0571 1420539453 33766.4609
0572 1420541796 33714.6719
0573 1420544140 33747.0820
0574 1420546484 33807.9609
0575 1420548828 33593.8477
0576 1420551171 33506.8750
0577 1420553515 33433.6406
0578 1420555859 33430.7305
0579 1420558203 33326.5430
0580 1420560546 33255.1875
0581 1420562890 33377.6641
0582 1420565234 33329.3438
0583 1420567578 33108.1523
0584 1420569921 33249.6914
0585 1420572265 33159.1562
0586 1420574609 33110.7539
0587 1420576953 33053.6992
0588 1420579296 33018.0391
0589 1420581640 33019.3125
0590 1420583984 32924.0781
0591 1420586328 32827.8125
0592 1420588671 32851.0977
0593 1420591015 32862.2930
0594 1420593359 32835.2383
0595 1420595703 32843.0625
0596 1420598046 32728.7422
0597 1420600390 32710.7051
0598 1420602734 32648.5723
0599 1420605078 32549.9219
0600 1420607421 32457.9082
0601 1420609765 32669.1152
0602 1420612109 32436.7559
0603 1420614453 32421.9824
0604 1420616796 32238.4727
0605 1420619140 32292.1094
0606 1420621484 32404.0293
0607 1420623828 32183.1191
0608 1420626171 32079.0410
0609 1420628515 32184.2734
0610 1420630859 32201.3418
0611 1420633203 32234.5215
0612 1420635546 31989.4355
0613 1420637890 31960.2578
0614 1420640234 31990.8770
0615 1420642578 31949.2852
0616 1420644921 31900.0566
0617 1420647265 31783.3281
0618 1420649609 31830.9434
0619 1420651953 31896.6387
0620 1420654296 31695.2051
0621 1420656640 31744.3965
0622 1420658984 31621.5117
0623 1420661328 31564.7012
0624 1420663671 31650.8945
0625 1420666015 31501.8066
0626 1420668359 31484.4531
0627 1420670703 31312.9258
0628 1420673046 31479.8867
0629 1420675390 31378.0801
0630 1420677734 31424.0273
0631 1420680078 31361.6094
0632 1420682421 31189.9766
0633 1420684765 31217.6836
0634 1420687109 31215.1191
0635 1420689453 31250.3555
0636 1420691796 31200.3242
0637 1420694140 31117.5723
0638 1420696484 31077.2246
0639 1420698828 31127.5430
0640 1420701171 31042.0449
0641 1420703515 31014.5469
0642 1420705859 31008.0918
0643 1420708203 31022.9648
0644 1420710546 30956.8945
0645 1420712890 30971.1543
0646 1420715234 31021.1582
0647 1420717578 30711.9668
0648 1420719921 30907.2969
0649 1420722265 30832.7852
0650 1420724609 30756.8301
0651 1420726953 30744.4824
0652 1420729296 30760.5664
0653 1420731640 30846.6934
0654 1420733984 30779.5215
0655 1420736328 30600.0273
0656 1420738671 30689.8750
0657 1420741015 30608.3672
0658 1420743359 30650.8613
0659 1420745703 30665.0000
0660 1420748046 30478.3184
0661 1420750390 30677.3340
0662 1420752734 30454.8223
0663 1420755078 30461.5742
0664 1420757421 30583.7168
0665 1420759765 30532.8008
0666 1420762109 30457.8516
0667 1420764453 30465.0762
0668 1420766796 30498.1387
0669 1420769140 30514.4004
0670 1420771484 30488.8301
0671 1420773828 30501.4336
0672 1420776171 30408.7500
0673 1420778515 30369.0352
0674 1420780859 30309.3496
0675 1420783203 30309.6582
0676 1420785546 30338.3477
0677 1420787890 30379.0430
0678 1420790234 30345.5195
0679 1420792578 30368.4668
0680 1420794921 30431.4785
0681 1420797265 30238.2402
0682 1420799609 30329.3750
0683 1420801953 30444.0703
0684 1420804296 30363.1562
0685 1420806640 30408.1543
0686 1420808984 30307.8516
0687 1420811328 30220.4336
0688 1420813671 30352.5586
0689 1420816015 30434.9492
0690 1420818359 30392.2500
0691 1420820703 30343.2754
0692 1420823046 30420.7188
0693 1420825390 30403.3535
0694 1420827734 30444.1582
0695 1420830078 30361.8184
0696 1420832421 30398.2266
0697 1420834765 30434.6562
0698 1420837109 30364.2637
0699 1420839453 30397.6680
0700 1420841796 30337.3828
0701 1420844140 30485.9141
0702 1420846484 30482.9688
0703 1420848828 30522.8652
0704 1420851171 30621.4082
0705 1420853515 30553.4414
0706 1420855859 30641.7617
0707 1420858203 30615.5332
0708 1420860546 30595.6875
0709 1420862890 30661.9648
0710 1420865234 30657.2207
0711 1420867578 30686.5801
0712 1420869921 30657.6348
0713 1420872265 30669.2324
0714 1420874609 30733.2559
0715 1420876953 30743.2461
0716 1420879296 30743.9668
0717 1420881640 30808.7988
0718 1420883984 30727.4473
0719 1420886328 30712.7773
0720 1420888671 30876.0098
0721 1420891015 30843.9473
0722 1420893359 30869.0664
0723 1420895703 31027.4805
0724 1420898046 30948.6797
0725 1420900390 31031.0664
0726 1420902734 31092.4648
0727 1420905078 31066.5391
0728 1420907421 31115.8164
0729 1420909765 31168.0957
0730 1420912109 31166.9922
0731 1420914453 31200.0039
0732 1420916796 31233.0645
0733 1420919140 31272.1523
0734 1420921484 31364.8047
0735 1420923828 31268.8418
0736 1420926171 31486.8887
0737 1420928515 31536.1152
0738 1420930859 31477.6602
0739 1420933203 31547.4199
0740 1420935546 31630.9863
0741 1420937890 31576.9766
0742 1420940234 31531.2324
0743 1420942578 31595.8164
0744 1420944921 31613.3926
0745 1420947265 31680.3262
0746 1420949609 31842.2129
0747 1420951953 31796.4141
0748 1420954296 31836.7266
0749 1420956640 31947.6074
0750 1420958984 31945.3184
0751 1420961328 31949.8164
0752 1420963671 32047.1152
0753 1420966015 32130.8066
0754 1420968359 32105.4609
0755 1420970703 32029.7656
0756 1420973046 32247.8594
0757 1420975390 32200.8281
0758 1420977734 32240.4023
0759 1420980078 32294.5527
0760 1420982421 32303.8379
0761 1420984765 32261.0840
0762 1420987109 32398.4980
0763 1420989453 32463.7812
0764 1420991796 32462.6211
0765 1420994140 32542.8105
0766 1420996484 32493.8047
0767 1420998828 32682.3398
0768 1421001171 32547.6309
0769 1421003515 32785.2109
0770 1421005859 32663.6289
0771 1421008203 32690.7734
0772 1421010546 32821.5859
0773 1421012890 32790.5352
0774 1421015234 32945.0781
0775 1421017578 33039.8047
0776 1421019921 33039.3359
0777 1421022265 33000.5156
0778 1421024609 33104.1250
0779 1421026953 33033.1094
0780 1421029296 33099.4844
0781 1421031640 33223.6367
0782 1421033984 33332.5469
0783 1421036328 33392.8438
0784 1421038671 33346.8320
0785 1421041015 33367.9375
0786 1421043359 33404.2461
0787 1421045703 33473.3359
0788 1421048046 33466.0234
0789 1421050390 33525.2539
0790 1421052734 33562.1484
0791 1421055078 33447.2227
0792 1421057421 33494.6211
0793 1421059765 33691.9297
0794 1421062109 33697.4258
0795 1421064453 33647.2578
0796 1421066796 33699.9102
0797 1421069140 33673.9180
0798 1421071484 33688.9688
0799 1421073828 33849.6719
0800 1421076171 33781.6562
0801 1421078515 33826.0508
0802 1421080859 33895.8008
0803 1421083203 33830.3242
0804 1421085546 33968.8320
0805 1421087890 33859.8203
0806 1421090234 33915.7109
0807 1421092578 33935.6055
0808 1421094921 34072.0000
0809 1421097265 34131.3203
0810 1421099609 34017.7344
0811 1421101953 34130.5508
0812 1421104296 34051.0117
0813 1421106640 34024.4062
0814 1421108984 34154.7266
0815 1421111328 34274.1172
0816 1421113671 34268.2305
0817 1421116015 34166.1094
0818 1421118359 34020.4258
0819 1421120703 34010.0781
0820 1421123046 33978.9219
0821 1421125390 34112.4453
0822 1421127734 34252.8047
0823 1421130078 34035.5352
0824 1421132421 34039.2578
0825 1421134765 34027.0391
0826 1421137109 34004.8242
0827 1421139453 34079.6953
0828 1421141796 34018.2070
0829 1421144140 34057.7734
0830 1421146484 34027.6445
0831 1421148828 34006.3359
0832 1421151171 33957.5430
0833 1421153515 33958.7070
0834 1421155859 33941.0859
0835 1421158203 33963.2305
0836 1421160546 33938.3281
0837 1421162890 34031.1055
0838 1421165234 33840.9297
0839 1421167578 33704.4922
0840 1421169921 33817.4453
0841 1421172265 33667.4648
0842 1421174609 33821.8398
0843 1421176953 33660.3438
0844 1421179296 33716.3008
0845 1421181640 33624.7930
0846 1421183984 33568.2852
0847 1421186328 33508.7070
0848 1421188671 33425.0977
0849 1421191015 33376.0273
0850 1421193359 33308.1016
0851 1421195703 33315.1055
0852 1421198046 33353.3672
0853 1421200390 33325.5352
0854 1421202734 33090.0117
0855 1421205078 33115.5391
0856 1421207421 32959.2344
0857 1421209765 32942.3242
0858 1421212109 32876.2773
0859 1421214453 32693.3105
0860 1421216796 32729.1465
0861 1421219140 32640.9902
0862 1421221484 32638.4316
0863 1421223828 32590.0742
0864 1421226171 32476.3203
0865 1421228515 32418.4551
0866 1421230859 32312.8770
0867 1421233203 32151.6523
0868 1421235546 32095.7148
0869 1421237890 32035.5684
0870 1421240234 31883.6445
0871 1421242578 31890.3066
0872 1421244921 31736.5547
0873 1421247265 31655.1348
0874 1421249609 31591.0488
0875 1421251953 31451.2070
0876 1421254296 31245.7109
0877 1421256640 31209.0664
0878 1421258984 31220.6953
0879 1421261328 30912.2266
0880 1421263671 30841.6602
0881 1421266015 30825.7734
0882 1421268359 30692.4805
0883 1421270703 30543.7637
0884 1421273046 30437.0840
0885 1421275390 30414.2480
0886 1421277734 30130.4043
0887 1421280078 30195.5020
0888 1421282421 30024.5859
0889 1421284765 29776.2988
0890 1421287109 29598.7520
0891 1421289453 29538.8203
0892 1421291796 29457.1699
0893 1421294140 29355.3594
0894 1421296484 29156.9316
0895 1421298828 28980.1660
0896 1421301171 28958.5312
0897 1421303515 28869.3887
0898 1421305859 28599.2285
0899 1421308203 28508.2344
0900 1421310546 28272.7500
0901 1421312890 28214.6797
0902 1421315234 28019.4395
0903 1421317578 27917.6035
0904 1421319921 27771.9473
0905 1421322265 27530.5293
0906 1421324609 27417.1328
0907 1421326953 27290.2090
0908 1421329296 27092.9512
0909 1421331640 26885.3047
0910 1421333984 26875.2129
0911 1421336328 26594.1953
0912 1421338671 26410.9453
0913 1421341015 26295.1387
0914 1421343359 26128.0527
0915 1421345703 26007.2070
0916 1421348046 25752.4141
0917 1421350390 25633.3887
0918 1421352734 25488.6543
0919 1421355078 25341.1543
0920 1421357421 25190.4531
0921 1421359765 24994.7109
0922 1421362109 24798.4531
0923 1421364453 24643.5996
0924 1421366796 24423.2227
0925 1421369140 24280.1875
0926 1421371484 24175.4648
0927 1421373828 23898.9141
0928 1421376171 23634.5703
0929 1421378515 23529.6582
0930 1421380859 23457.9434
0931 1421383203 23293.8281
0932 1421385546 23079.7695
0933 1421387890 22872.0430
0934 1421390234 22699.6953
0935 1421392578 22480.4648
0936 1421394921 22238.5352
0937 1421397265 22074.8848
0938 1421399609 21883.6836
0939 1421401953 21799.2695
0940 1421404296 21620.2246
0941 1421406640 21317.3711
0942 1421408984 21164.3789
0943 1421411328 21037.9258
0944 1421413671 20892.6660
0945 1421416015 20611.4004
0946 1421418359 20454.8848
0947 1421420703 20312.6934
0948 1421423046 20124.7578
0949 1421425390 20042.5781
0950 1421427734 19770.1152
0951 1421430078 19687.2363
0952 1421432421 19444.1543
0953 1421434765 19201.5938
0954 1421437109 19068.8066
0955 1421439453 18923.3730
0956 1421441796 18719.1719
0957 1421444140 18516.8613
0958 1421446484 18378.2578
0959 1421448828 18288.9492
0960 1421451171 18110.8965
0961 1421453515 17886.2070
0962 1421455859 17658.5449
0963 1421458203 17559.8262
0964 1421460546 17353.9082
0965 1421462890 17186.7676
0966 1421465234 17069.9258
0967 1421467578 16869.1602
0968 1421469921 16734.6504
0969 1421472265 16554.3086
0970 1421474609 16398.8672
0971 1421476953 16227.3682
0972 1421479296 16050.7920
0973 1421481640 15869.4326
0974 1421483984 15730.7021
0975 1421486328 15556.4824
0976 1421488671 15516.3564
0977 1421491015 15285.1094
0978 1421493359 15139.9326
0979 1421495703 14969.9023
0980 1421498046 14843.2158
0981 1421500390 14649.5000
0982 1421502734 14618.0527
0983 1421505078 14456.7578
0984 1421507421 14274.3906
0985 1421509765 14103.6318
0986 1421512109 13980.1602
0987 1421514453 13871.0977
0988 1421516796 13767.3516
0989 1421519140 13612.3701
0990 1421521484 13456.9121
0991 1421523828 13340.0381
0992 1421526171 13229.3262
0993 1421528515 13050.2559
0994 1421530859 12929.8096
0995 1421533203 12818.4258
0996 1421535546 12732.2334
0997 1421537890 12618.1191
0998 1421540234 12459.4824
0999 1421542578 12354.4893
1000 1421544921 12258.5186
1001 1421547265 12185.8467
1002 1421549609 12090.7529
1003 1421551953 11988.9053
1004 1421554296 11862.4111
1005 1421556640 11723.6504
1006 1421558984 11640.8105
1007 1421561328 11584.0342
1008 1421563671 11457.5107
1009 1421566015 11384.7217
1010 1421568359 11332.7832
1011 1421570703 11171.2119
1012 1421573046 11085.8203
1013 1421575390 11066.4980
1014 1421577734 11014.4199
1015 1421580078 10899.6064
1016 1421582421 10814.7891
1017 1421584765 10732.0576
1018 1421587109 10649.0469
1019 1421589453 10615.0439
1020 1421591796 10559.4893
1021 1421594140 10465.6406
1022 1421596484 10400.5195
1023 1421598828 10329.4668
