# File: 20-10-09T212226.ast
# NOTEA     = Foam Pyramid Horn
# NOTEB     = Spectral Integration
# OBSERVER  = Schultz
# DEVICE    = rtl=0,bias=0
# DATADIR   = ../data/
# SITE      = Foam Pyramid Horn
# CITY      = Chicago
# REGION    = Illinois
# COUNTRY   = US
# TELTYPE   = Foam Pyramid Horn
# FRAME     = TOPO
# GAIN1     = 49.6
# GAIN2     = 49.6
# GAIN3     = 49.6
# GAIN4     = 0.0
# Count     = 490000
# CenterFreq= 1420400000.0
# Bandwidth = 2400000.0
# Duration  = 305.839898
# DeltaX    = 5859.375
# TSYS      = 200.0
# TRX       = 100.0
# TRMS      = 2.0
# TINT      = 1.0
# KPERC     = 100.0
# GAINFACT  = 1.0
# BUNIT     = Counts
# NCHAN     = 1024
# NSPEC     = 1
# NTIME     = 0
# NSAMPLES  = 0
# EPEAK     = 4.10875183718
# ERMS      = 0.995973393526
# EMJD      = 58568.808999981004 
# REFCHAN   = 512.0
# REFSAMPL  = 256.0
# NAVE      = 700
# NMEDIAN   = 1024
# Fft_rate  = 5000
# UTC       = 2020-10-09 21:22:26.252411
# SECONDS   =       0.0000000000 
# LST       = 16:47:42.480
# AZ        = 180.0
# EL        = 40.0
# TELLON    = -87:37:48.000
# TELLAT    = +41:52:01.000
# RA        = 16:45:29.170
# DEC       = -08:04:51.200
# GALLON    = 09:47:10.90
# GALLAT    = +23:20:14.40
# ALT_SUN   = +19:31:06.3
# AZ_SUN    = +241:07:28.9
# ETAA      = 0.8
# ETAB      = 0.99
# POLANGLE  = 0.0
# TELSIZEAM = 1.0
# TELSIZEBM = 1.0
# AST_VERS  = 05.01
0000 1419201171 10007.2715
0001 1419203515 9989.3428
0002 1419205859 9910.1143
0003 1419208203 9889.1631
0004 1419210546 9771.6055
0005 1419212890 9735.6680
0006 1419215234 9698.2012
0007 1419217578 9667.0186
0008 1419219921 9666.2129
0009 1419222265 9599.1045
0010 1419224609 9528.1299
0011 1419226953 9508.8047
0012 1419229296 9471.8818
0013 1419231640 9470.0225
0014 1419233984 9433.2021
0015 1419236328 9405.9746
0016 1419238671 9380.5508
0017 1419241015 9349.8613
0018 1419243359 9365.5137
0019 1419245703 9323.9111
0020 1419248046 9330.5059
0021 1419250390 9280.8721
0022 1419252734 9285.3613
0023 1419255078 9283.8252
0024 1419257421 9248.0205
0025 1419259765 9244.1689
0026 1419262109 9285.4160
0027 1419264453 9285.6787
0028 1419266796 9260.0840
0029 1419269140 9310.3613
0030 1419271484 9341.5586
0031 1419273828 9329.6113
0032 1419276171 9382.6523
0033 1419278515 9378.8721
0034 1419280859 9392.5625
0035 1419283203 9439.3105
0036 1419285546 9506.1211
0037 1419287890 9573.4219
0038 1419290234 9554.5254
0039 1419292578 9631.1846
0040 1419294921 9670.1221
0041 1419297265 9744.0371
0042 1419299609 9792.0117
0043 1419301953 9895.0244
0044 1419304296 9988.6318
0045 1419306640 10051.6455
0046 1419308984 10122.6982
0047 1419311328 10250.7197
0048 1419313671 10332.5605
0049 1419316015 10442.8340
0050 1419318359 10502.0078
0051 1419320703 10635.8125
0052 1419323046 10773.2559
0053 1419325390 10817.4385
0054 1419327734 10913.5537
0055 1419330078 11086.8545
0056 1419332421 11219.2002
0057 1419334765 11383.5684
0058 1419337109 11469.0166
0059 1419339453 11605.7236
0060 1419341796 11730.8594
0061 1419344140 11892.8926
0062 1419346484 12106.9512
0063 1419348828 12243.8281
0064 1419351171 12326.5479
0065 1419353515 12502.8574
0066 1419355859 12683.9033
0067 1419358203 12918.2744
0068 1419360546 13063.0576
0069 1419362890 13200.7031
0070 1419365234 13318.3496
0071 1419367578 13539.4541
0072 1419369921 13693.7441
0073 1419372265 13831.9736
0074 1419374609 14036.3691
0075 1419376953 14196.6758
0076 1419379296 14370.8652
0077 1419381640 14493.5508
0078 1419383984 14706.5605
0079 1419386328 14865.9277
0080 1419388671 15111.0479
0081 1419391015 15370.3105
0082 1419393359 15435.3164
0083 1419395703 15642.7217
0084 1419398046 15787.4873
0085 1419400390 15940.6729
0086 1419402734 16145.8359
0087 1419405078 16312.8252
0088 1419407421 16511.2305
0089 1419409765 16667.4141
0090 1419412109 16882.9082
0091 1419414453 17114.5293
0092 1419416796 17256.1680
0093 1419419140 17451.8711
0094 1419421484 17650.6426
0095 1419423828 17852.2363
0096 1419426171 18055.0039
0097 1419428515 18193.8457
0098 1419430859 18418.3887
0099 1419433203 18506.4883
0100 1419435546 18665.3281
0101 1419437890 18918.9395
0102 1419440234 19089.3379
0103 1419442578 19240.9277
0104 1419444921 19407.8965
0105 1419447265 19643.3359
0106 1419449609 19767.5547
0107 1419451953 19888.1465
0108 1419454296 20130.2402
0109 1419456640 20337.8438
0110 1419458984 20538.2852
0111 1419461328 20663.1152
0112 1419463671 20850.4590
0113 1419466015 21060.7227
0114 1419468359 21164.2578
0115 1419470703 21370.2344
0116 1419473046 21521.3828
0117 1419475390 21758.9238
0118 1419477734 21953.6797
0119 1419480078 22074.5938
0120 1419482421 22195.6348
0121 1419484765 22306.6387
0122 1419487109 22564.1035
0123 1419489453 22758.9668
0124 1419491796 22906.2363
0125 1419494140 23040.6367
0126 1419496484 23182.9941
0127 1419498828 23360.7656
0128 1419501171 23609.2852
0129 1419503515 23737.9316
0130 1419505859 23782.5059
0131 1419508203 24068.8555
0132 1419510546 24165.0742
0133 1419512890 24287.3965
0134 1419515234 24456.4766
0135 1419517578 24600.0527
0136 1419519921 24772.6777
0137 1419522265 24868.3105
0138 1419524609 24975.6777
0139 1419526953 25120.8477
0140 1419529296 25348.2227
0141 1419531640 25545.2109
0142 1419533984 25597.9961
0143 1419536328 25735.7793
0144 1419538671 25883.3379
0145 1419541015 26087.4199
0146 1419543359 26089.1113
0147 1419545703 26217.1328
0148 1419548046 26391.2695
0149 1419550390 26427.7148
0150 1419552734 26624.3789
0151 1419555078 26796.2539
0152 1419557421 26794.4375
0153 1419559765 26994.7480
0154 1419562109 27063.1816
0155 1419564453 27082.9863
0156 1419566796 27321.8008
0157 1419569140 27411.9707
0158 1419571484 27602.8809
0159 1419573828 27617.1582
0160 1419576171 27840.2051
0161 1419578515 27880.8770
0162 1419580859 28011.6797
0163 1419583203 27958.7520
0164 1419585546 28199.3164
0165 1419587890 28245.5059
0166 1419590234 28359.0410
0167 1419592578 28356.7793
0168 1419594921 28560.9160
0169 1419597265 28645.6836
0170 1419599609 28716.2520
0171 1419601953 28879.6309
0172 1419604296 28772.4727
0173 1419606640 28904.4062
0174 1419608984 29001.6016
0175 1419611328 29044.4863
0176 1419613671 29107.8848
0177 1419616015 29150.4414
0178 1419618359 29325.2227
0179 1419620703 29475.0117
0180 1419623046 29379.6074
0181 1419625390 29476.2168
0182 1419627734 29673.6738
0183 1419630078 29661.5625
0184 1419632421 29763.0801
0185 1419634765 29626.8574
0186 1419637109 29703.5859
0187 1419639453 29818.5547
0188 1419641796 29931.6953
0189 1419644140 29940.4414
0190 1419646484 30028.3398
0191 1419648828 30028.8203
0192 1419651171 30087.2891
0193 1419653515 30213.2051
0194 1419655859 30257.9258
0195 1419658203 30245.3340
0196 1419660546 30288.2734
0197 1419662890 30300.5879
0198 1419665234 30467.0645
0199 1419667578 30410.8418
0200 1419669921 30428.0488
0201 1419672265 30500.8262
0202 1419674609 30495.7832
0203 1419676953 30627.7441
0204 1419679296 30603.2773
0205 1419681640 30511.8516
0206 1419683984 30591.5234
0207 1419686328 30649.2656
0208 1419688671 30708.2285
0209 1419691015 30653.1973
0210 1419693359 30613.8535
0211 1419695703 30669.3984
0212 1419698046 30590.1621
0213 1419700390 30820.9219
0214 1419702734 30715.3730
0215 1419705078 30717.2969
0216 1419707421 30805.9277
0217 1419709765 30802.8652
0218 1419712109 30771.1055
0219 1419714453 30724.1699
0220 1419716796 30742.9590
0221 1419719140 30739.5469
0222 1419721484 30743.2305
0223 1419723828 30704.0371
0224 1419726171 30882.1406
0225 1419728515 30744.9375
0226 1419730859 30770.6348
0227 1419733203 30720.9199
0228 1419735546 30668.8066
0229 1419737890 30816.3066
0230 1419740234 30710.7832
0231 1419742578 30634.4668
0232 1419744921 30635.6895
0233 1419747265 30699.5410
0234 1419749609 30697.2227
0235 1419751953 30626.5566
0236 1419754296 30634.1602
0237 1419756640 30595.3691
0238 1419758984 30595.6406
0239 1419761328 30645.4902
0240 1419763671 30757.9531
0241 1419766015 30438.3223
0242 1419768359 30465.5664
0243 1419770703 30478.2754
0244 1419773046 30474.6367
0245 1419775390 30465.1250
0246 1419777734 30500.8086
0247 1419780078 30497.7109
0248 1419782421 30501.7598
0249 1419784765 30472.7090
0250 1419787109 30432.7598
0251 1419789453 30540.4961
0252 1419791796 30368.6289
0253 1419794140 30401.3047
0254 1419796484 30459.2129
0255 1419798828 30221.7422
0256 1419801171 30312.1211
0257 1419803515 30290.8770
0258 1419805859 30236.5020
0259 1419808203 30254.0312
0260 1419810546 30183.2773
0261 1419812890 30139.9746
0262 1419815234 30147.3164
0263 1419817578 30168.8086
0264 1419819921 30262.8320
0265 1419822265 30237.6699
0266 1419824609 30195.2246
0267 1419826953 30055.0352
0268 1419829296 29939.6309
0269 1419831640 30050.2051
0270 1419833984 29926.0898
0271 1419836328 30011.8164
0272 1419838671 29935.1191
0273 1419841015 29748.8613
0274 1419843359 29836.5332
0275 1419845703 29796.1328
0276 1419848046 29778.1602
0277 1419850390 29800.5137
0278 1419852734 29769.5547
0279 1419855078 29771.1797
0280 1419857421 29751.7285
0281 1419859765 29717.8535
0282 1419862109 29600.9863
0283 1419864453 29582.2031
0284 1419866796 29656.4023
0285 1419869140 29595.3008
0286 1419871484 29568.7793
0287 1419873828 29573.3320
0288 1419876171 29470.4277
0289 1419878515 29513.5859
0290 1419880859 29476.6719
0291 1419883203 29391.5430
0292 1419885546 29495.8164
0293 1419887890 29412.1309
0294 1419890234 29388.9062
0295 1419892578 29507.5312
0296 1419894921 29273.1602
0297 1419897265 29280.6055
0298 1419899609 29273.5371
0299 1419901953 29262.7754
0300 1419904296 29251.5840
0301 1419906640 29238.4980
0302 1419908984 29212.2461
0303 1419911328 29171.5742
0304 1419913671 29147.1953
0305 1419916015 29074.6797
0306 1419918359 29129.3789
0307 1419920703 29196.0703
0308 1419923046 29109.1094
0309 1419925390 29124.9355
0310 1419927734 29070.6602
0311 1419930078 29131.2520
0312 1419932421 28982.6016
0313 1419934765 28990.0273
0314 1419937109 29093.7070
0315 1419939453 29000.3203
0316 1419941796 29006.5391
0317 1419944140 29080.8047
0318 1419946484 28967.4512
0319 1419948828 28934.1289
0320 1419951171 29108.4531
0321 1419953515 29049.1016
0322 1419955859 28988.1602
0323 1419958203 28989.9668
0324 1419960546 28935.8066
0325 1419962890 28851.9492
0326 1419965234 28872.4902
0327 1419967578 28937.5332
0328 1419969921 28882.2363
0329 1419972265 28997.8301
0330 1419974609 28891.5020
0331 1419976953 29000.8398
0332 1419979296 28964.9297
0333 1419981640 28863.1719
0334 1419983984 28840.2578
0335 1419986328 28974.0703
0336 1419988671 28956.0957
0337 1419991015 28998.6660
0338 1419993359 29016.6953
0339 1419995703 28963.3066
0340 1419998046 28908.6992
0341 1420000390 28949.2539
0342 1420002734 28954.0059
0343 1420005078 28950.4141
0344 1420007421 28999.2910
0345 1420009765 29044.4277
0346 1420012109 29004.0605
0347 1420014453 29012.5332
0348 1420016796 29018.2422
0349 1420019140 29035.2871
0350 1420021484 29006.4004
0351 1420023828 29013.2305
0352 1420026171 29072.7891
0353 1420028515 29151.9004
0354 1420030859 29110.2500
0355 1420033203 29188.9766
0356 1420035546 29149.5137
0357 1420037890 29150.8066
0358 1420040234 29154.5527
0359 1420042578 29164.3965
0360 1420044921 29168.9766
0361 1420047265 29143.3262
0362 1420049609 29178.7988
0363 1420051953 29372.0410
0364 1420054296 29332.3320
0365 1420056640 29253.5215
0366 1420058984 29337.9824
0367 1420061328 29416.0859
0368 1420063671 29372.7207
0369 1420066015 29373.1602
0370 1420068359 29486.5352
0371 1420070703 29530.7480
0372 1420073046 29461.1719
0373 1420075390 29474.2676
0374 1420077734 29544.0156
0375 1420080078 29518.8906
0376 1420082421 29731.9180
0377 1420084765 29718.6680
0378 1420087109 29757.4316
0379 1420089453 29688.9277
0380 1420091796 29702.6465
0381 1420094140 29851.2285
0382 1420096484 29890.5293
0383 1420098828 29857.6230
0384 1420101171 29887.5742
0385 1420103515 29932.5703
0386 1420105859 30035.6680
0387 1420108203 29991.2930
0388 1420110546 30070.3105
0389 1420112890 29995.7148
0390 1420115234 30089.5918
0391 1420117578 30073.8828
0392 1420119921 30170.1055
0393 1420122265 30280.5176
0394 1420124609 30283.8066
0395 1420126953 30266.4414
0396 1420129296 30450.7402
0397 1420131640 30446.0996
0398 1420133984 30379.3594
0399 1420136328 30481.7539
0400 1420138671 30505.9277
0401 1420141015 30545.2656
0402 1420143359 30605.0801
0403 1420145703 30556.0703
0404 1420148046 30641.2363
0405 1420150390 30772.5117
0406 1420152734 30803.6973
0407 1420155078 30838.6367
0408 1420157421 30826.5156
0409 1420159765 31025.9922
0410 1420162109 31014.7871
0411 1420164453 30931.6523
0412 1420166796 31064.1055
0413 1420169140 31138.5840
0414 1420171484 31180.9453
0415 1420173828 31327.7637
0416 1420176171 31329.1348
0417 1420178515 31337.9414
0418 1420180859 31355.1719
0419 1420183203 31452.5195
0420 1420185546 31358.5488
0421 1420187890 31524.3691
0422 1420190234 31594.0371
0423 1420192578 31542.0723
0424 1420194921 31722.5781
0425 1420197265 31747.9941
0426 1420199609 31726.7129
0427 1420201953 31816.7598
0428 1420204296 32030.0254
0429 1420206640 31980.1426
0430 1420208984 31953.0078
0431 1420211328 32031.3027
0432 1420213671 32086.7285
0433 1420216015 32229.8379
0434 1420218359 32450.0918
0435 1420220703 32349.8926
0436 1420223046 32546.1484
0437 1420225390 32611.0508
0438 1420227734 32504.9531
0439 1420230078 32604.3672
0440 1420232421 32850.6562
0441 1420234765 32815.4219
0442 1420237109 32921.8477
0443 1420239453 32912.4531
0444 1420241796 33067.8086
0445 1420244140 33276.4023
0446 1420246484 33332.9102
0447 1420248828 33265.4180
0448 1420251171 33227.5781
0449 1420253515 33579.8828
0450 1420255859 33515.6406
0451 1420258203 33572.5898
0452 1420260546 33658.1641
0453 1420262890 33669.9961
0454 1420265234 33859.5117
0455 1420267578 34046.7969
0456 1420269921 34135.3438
0457 1420272265 34253.7344
0458 1420274609 34164.3242
0459 1420276953 34161.3398
0460 1420279296 34173.7539
0461 1420281640 34413.9609
0462 1420283984 34357.1406
0463 1420286328 34396.2969
0464 1420288671 34493.1562
0465 1420291015 34703.1797
0466 1420293359 34588.4570
0467 1420295703 34692.1406
0468 1420298046 34843.2109
0469 1420300390 34993.1680
0470 1420302734 34884.0195
0471 1420305078 35004.1328
0472 1420307421 35236.9961
0473 1420309765 35444.0898
0474 1420312109 35647.9961
0475 1420314453 35929.4766
0476 1420316796 36059.5117
0477 1420319140 36392.0664
0478 1420321484 36600.8789
0479 1420323828 36992.9609
0480 1420326171 37352.5195
0481 1420328515 37573.1406
0482 1420330859 37743.9453
0483 1420333203 38012.2969
0484 1420335546 38142.1328
0485 1420337890 38350.5781
0486 1420340234 38545.6055
0487 1420342578 38879.4648
0488 1420344921 39115.7109
0489 1420347265 39191.0664
0490 1420349609 39278.9766
0491 1420351953 39397.9141
0492 1420354296 39462.9570
0493 1420356640 39607.8672
0494 1420358984 39442.6328
0495 1420361328 39422.6172
0496 1420363671 39241.6406
0497 1420366015 38951.4570
0498 1420368359 38891.2539
0499 1420370703 38456.8164
0500 1420373046 38134.6562
0501 1420375390 37829.9844
0502 1420377734 37232.6914
0503 1420380078 36786.3867
0504 1420382421 36464.3086
0505 1420384765 36183.5234
0506 1420387109 36001.6797
0507 1420389453 35719.1250
0508 1420391796 35462.0352
0509 1420394140 35406.5781
0510 1420396484 35210.9531
0511 1420398828 35209.1133
0512 1420401171 35183.6836
0513 1420403515 35002.8945
0514 1420405859 34926.7383
0515 1420408203 34871.7891
0516 1420410546 34856.2148
0517 1420412890 34732.7617
0518 1420415234 34626.0273
0519 1420417578 34756.0234
0520 1420419921 34623.3438
0521 1420422265 34445.4648
0522 1420424609 34603.3203
0523 1420426953 34497.1602
0524 1420429296 34543.3359
0525 1420431640 34547.1172
0526 1420433984 34303.9297
0527 1420436328 34421.1758
0528 1420438671 34297.4492
0529 1420441015 34257.6680
0530 1420443359 34066.5000
0531 1420445703 34106.1172
0532 1420448046 34084.7812
0533 1420450390 33955.7344
0534 1420452734 33977.4102
0535 1420455078 34115.6953
0536 1420457421 34053.2188
0537 1420459765 33960.9609
0538 1420462109 33865.8867
0539 1420464453 33837.6602
0540 1420466796 33914.6328
0541 1420469140 33735.6680
0542 1420471484 33770.1406
0543 1420473828 33697.7656
0544 1420476171 33685.6289
0545 1420478515 33587.0781
0546 1420480859 33660.9961
0547 1420483203 33739.6055
0548 1420485546 33673.9961
0549 1420487890 33513.5078
0550 1420490234 33511.0977
0551 1420492578 33469.3984
0552 1420494921 33528.2383
0553 1420497265 33356.5312
0554 1420499609 33336.6875
0555 1420501953 33343.8828
0556 1420504296 33358.5273
0557 1420506640 33331.8906
0558 1420508984 33286.7227
0559 1420511328 33133.2305
0560 1420513671 33304.0039
0561 1420516015 33313.2070
0562 1420518359 33133.3281
0563 1420520703 33170.1523
0564 1420523046 33125.1875
0565 1420525390 32970.9180
0566 1420527734 32969.9727
0567 1420530078 32877.2852
0568 1420532421 32903.3398
0569 1420534765 32968.0195
0570 1420537109 32870.0664
0571 1420539453 32782.3672
0572 1420541796 32708.2832
0573 1420544140 32698.5918
0574 1420546484 32676.1621
0575 1420548828 32631.8359
0576 1420551171 32579.9141
0577 1420553515 32609.6738
0578 1420555859 32643.0234
0579 1420558203 32589.0586
0580 1420560546 32465.9727
0581 1420562890 32393.1035
0582 1420565234 32297.3926
0583 1420567578 32367.2344
0584 1420569921 32270.8184
0585 1420572265 32277.2656
0586 1420574609 32072.5410
0587 1420576953 32077.1211
0588 1420579296 32187.6484
0589 1420581640 31924.7539
0590 1420583984 31917.7031
0591 1420586328 31926.4434
0592 1420588671 31880.0215
0593 1420591015 31883.4062
0594 1420593359 31923.7227
0595 1420595703 31750.8672
0596 1420598046 31633.3262
0597 1420600390 31674.7969
0598 1420602734 31667.7402
0599 1420605078 31647.4512
0600 1420607421 31697.9258
0601 1420609765 31512.6328
0602 1420612109 31569.4277
0603 1420614453 31625.3145
0604 1420616796 31392.9297
0605 1420619140 31358.3340
0606 1420621484 31339.9160
0607 1420623828 31308.3203
0608 1420626171 31244.5078
0609 1420628515 31201.1094
0610 1420630859 31210.0254
0611 1420633203 31108.0801
0612 1420635546 31057.9648
0613 1420637890 31147.6895
0614 1420640234 31109.5078
0615 1420642578 30888.2754
0616 1420644921 30907.9141
0617 1420647265 30886.3281
0618 1420649609 30807.5352
0619 1420651953 30904.6660
0620 1420654296 30834.7637
0621 1420656640 30729.1699
0622 1420658984 30654.9102
0623 1420661328 30709.6641
0624 1420663671 30510.3555
0625 1420666015 30574.0195
0626 1420668359 30481.5117
0627 1420670703 30557.6094
0628 1420673046 30528.1836
0629 1420675390 30345.3164
0630 1420677734 30290.9473
0631 1420680078 30298.8359
0632 1420682421 30347.3398
0633 1420684765 30210.3594
0634 1420687109 30261.7480
0635 1420689453 30409.7227
0636 1420691796 30290.1250
0637 1420694140 30248.1484
0638 1420696484 30273.0156
0639 1420698828 30249.0703
0640 1420701171 30245.9922
0641 1420703515 30132.3965
0642 1420705859 30013.9160
0643 1420708203 30064.2910
0644 1420710546 30045.4512
0645 1420712890 29993.7246
0646 1420715234 30023.1309
0647 1420717578 30050.8516
0648 1420719921 29904.8066
0649 1420722265 29887.3750
0650 1420724609 29726.3828
0651 1420726953 29681.7324
0652 1420729296 29812.5117
0653 1420731640 29759.8164
0654 1420733984 29702.2109
0655 1420736328 29741.3516
0656 1420738671 29649.1289
0657 1420741015 29643.4453
0658 1420743359 29676.6484
0659 1420745703 29742.7363
0660 1420748046 29631.6797
0661 1420750390 29694.9902
0662 1420752734 29625.5703
0663 1420755078 29526.1367
0664 1420757421 29464.0879
0665 1420759765 29558.0566
0666 1420762109 29527.0371
0667 1420764453 29439.8223
0668 1420766796 29517.8789
0669 1420769140 29499.8418
0670 1420771484 29459.2363
0671 1420773828 29440.6016
0672 1420776171 29446.4805
0673 1420778515 29456.1738
0674 1420780859 29421.3711
0675 1420783203 29442.0020
0676 1420785546 29485.0195
0677 1420787890 29381.3320
0678 1420790234 29462.4453
0679 1420792578 29392.0273
0680 1420794921 29379.7832
0681 1420797265 29479.2949
0682 1420799609 29528.4531
0683 1420801953 29430.0137
0684 1420804296 29369.4277
0685 1420806640 29395.8770
0686 1420808984 29451.6309
0687 1420811328 29364.9824
0688 1420813671 29385.0840
0689 1420816015 29503.2676
0690 1420818359 29429.7402
0691 1420820703 29455.5391
0692 1420823046 29471.0430
0693 1420825390 29364.3691
0694 1420827734 29383.1719
0695 1420830078 29414.8086
0696 1420832421 29514.3008
0697 1420834765 29433.3262
0698 1420837109 29507.3984
0699 1420839453 29445.0195
0700 1420841796 29390.7969
0701 1420844140 29453.6445
0702 1420846484 29460.5273
0703 1420848828 29577.9004
0704 1420851171 29483.2344
0705 1420853515 29560.4570
0706 1420855859 29630.1191
0707 1420858203 29616.9238
0708 1420860546 29656.8828
0709 1420862890 29642.3418
0710 1420865234 29558.4570
0711 1420867578 29664.3691
0712 1420869921 29694.1230
0713 1420872265 29757.8203
0714 1420874609 29715.8438
0715 1420876953 29792.4297
0716 1420879296 29726.0352
0717 1420881640 29941.0039
0718 1420883984 29950.8574
0719 1420886328 29965.6875
0720 1420888671 29920.3418
0721 1420891015 29942.0879
0722 1420893359 30025.6680
0723 1420895703 30031.8535
0724 1420898046 30008.6914
0725 1420900390 29975.9473
0726 1420902734 30011.7773
0727 1420905078 30060.4648
0728 1420907421 30217.5938
0729 1420909765 30076.6152
0730 1420912109 30331.1172
0731 1420914453 30229.1621
0732 1420916796 30318.1113
0733 1420919140 30335.5137
0734 1420921484 30309.2207
0735 1420923828 30326.7422
0736 1420926171 30584.1660
0737 1420928515 30514.6562
0738 1420930859 30419.0957
0739 1420933203 30468.6953
0740 1420935546 30599.7598
0741 1420937890 30656.1465
0742 1420940234 30629.7578
0743 1420942578 30622.5352
0744 1420944921 30713.7148
0745 1420947265 30680.2266
0746 1420949609 30716.1328
0747 1420951953 30794.3926
0748 1420954296 30870.5195
0749 1420956640 30751.2715
0750 1420958984 30936.8047
0751 1420961328 31052.5312
0752 1420963671 31081.2637
0753 1420966015 31077.1758
0754 1420968359 31255.0332
0755 1420970703 31144.8086
0756 1420973046 31161.1113
0757 1420975390 31233.9922
0758 1420977734 31310.9805
0759 1420980078 31381.5117
0760 1420982421 31292.3301
0761 1420984765 31462.4453
0762 1420987109 31483.9902
0763 1420989453 31518.4453
0764 1420991796 31409.7578
0765 1420994140 31515.5625
0766 1420996484 31731.6367
0767 1420998828 31711.8008
0768 1421001171 31840.4590
0769 1421003515 31701.7793
0770 1421005859 31818.9766
0771 1421008203 31851.4336
0772 1421010546 31869.5781
0773 1421012890 31878.2012
0774 1421015234 31937.9941
0775 1421017578 32039.4277
0776 1421019921 31996.9941
0777 1421022265 31916.3281
0778 1421024609 32124.7246
0779 1421026953 32083.2754
0780 1421029296 32256.6055
0781 1421031640 32359.7617
0782 1421033984 32306.0703
0783 1421036328 32253.9395
0784 1421038671 32324.0391
0785 1421041015 32418.2305
0786 1421043359 32388.2285
0787 1421045703 32405.7266
0788 1421048046 32411.5586
0789 1421050390 32557.3789
0790 1421052734 32566.9414
0791 1421055078 32521.6621
0792 1421057421 32511.6797
0793 1421059765 32764.7793
0794 1421062109 32653.9609
0795 1421064453 32648.6016
0796 1421066796 32694.6113
0797 1421069140 32601.5723
0798 1421071484 32783.5781
0799 1421073828 32737.4922
0800 1421076171 32786.6836
0801 1421078515 32887.7891
0802 1421080859 32856.1172
0803 1421083203 33059.8867
0804 1421085546 32987.3164
0805 1421087890 32942.4414
0806 1421090234 32963.5898
0807 1421092578 32914.4180
0808 1421094921 33042.0859
0809 1421097265 33106.3359
0810 1421099609 33055.2461
0811 1421101953 32899.2031
0812 1421104296 33025.2773
0813 1421106640 32942.6484
0814 1421108984 33093.1875
0815 1421111328 33057.1523
0816 1421113671 33135.4141
0817 1421116015 33183.0117
0818 1421118359 33181.1055
0819 1421120703 33070.5625
0820 1421123046 33179.3867
0821 1421125390 32999.8125
0822 1421127734 33212.6055
0823 1421130078 33129.3594
0824 1421132421 33103.1836
0825 1421134765 33089.8594
0826 1421137109 33147.4258
0827 1421139453 33131.0156
0828 1421141796 33036.7188
0829 1421144140 33021.0039
0830 1421146484 32977.0820
0831 1421148828 33034.2852
0832 1421151171 33096.3672
0833 1421153515 33011.5898
0834 1421155859 32991.5820
0835 1421158203 32901.8320
0836 1421160546 32883.5625
0837 1421162890 32919.9609
0838 1421165234 32851.3711
0839 1421167578 32891.0117
0840 1421169921 32896.2422
0841 1421172265 32799.1445
0842 1421174609 32667.7012
0843 1421176953 32741.4160
0844 1421179296 32552.3242
0845 1421181640 32625.5840
0846 1421183984 32646.7383
0847 1421186328 32538.5898
0848 1421188671 32481.4336
0849 1421191015 32518.2871
0850 1421193359 32437.2461
0851 1421195703 32328.4453
0852 1421198046 32300.9531
0853 1421200390 32251.1621
0854 1421202734 32281.3906
0855 1421205078 32095.1133
0856 1421207421 32072.9473
0857 1421209765 32019.0879
0858 1421212109 31924.6719
0859 1421214453 31939.9355
0860 1421216796 31765.1055
0861 1421219140 31797.9648
0862 1421221484 31737.6758
0863 1421223828 31569.6094
0864 1421226171 31616.8223
0865 1421228515 31492.9746
0866 1421230859 31343.0098
0867 1421233203 31422.9395
0868 1421235546 31342.8516
0869 1421237890 31199.0820
0870 1421240234 31039.1250
0871 1421242578 30902.5391
0872 1421244921 30810.8574
0873 1421247265 30767.5625
0874 1421249609 30665.4355
0875 1421251953 30798.7188
0876 1421254296 30454.0469
0877 1421256640 30410.0586
0878 1421258984 30278.2266
0879 1421261328 30252.7539
0880 1421263671 30069.4219
0881 1421266015 29965.6660
0882 1421268359 29853.3320
0883 1421270703 29741.9395
0884 1421273046 29650.3027
0885 1421275390 29503.1191
0886 1421277734 29456.5762
0887 1421280078 29258.6875
0888 1421282421 29226.4082
0889 1421284765 29129.9180
0890 1421287109 28979.8750
0891 1421289453 28782.5586
0892 1421291796 28619.2715
0893 1421294140 28581.1484
0894 1421296484 28355.5020
0895 1421298828 28277.8574
0896 1421301171 28090.8379
0897 1421303515 28012.5078
0898 1421305859 27878.6484
0899 1421308203 27713.7266
0900 1421310546 27610.4707
0901 1421312890 27495.7500
0902 1421315234 27361.4336
0903 1421317578 27126.1816
0904 1421319921 27025.6797
0905 1421322265 26822.9922
0906 1421324609 26777.2910
0907 1421326953 26594.5332
0908 1421329296 26419.7051
0909 1421331640 26262.5605
0910 1421333984 26085.0742
0911 1421336328 25915.5312
0912 1421338671 25773.0195
0913 1421341015 25594.2949
0914 1421343359 25464.4629
0915 1421345703 25290.6602
0916 1421348046 25105.4395
0917 1421350390 24986.3359
0918 1421352734 24868.0605
0919 1421355078 24698.1230
0920 1421357421 24474.0078
0921 1421359765 24260.0625
0922 1421362109 24104.0527
0923 1421364453 23989.4102
0924 1421366796 23778.9805
0925 1421369140 23579.8418
0926 1421371484 23422.2988
0927 1421373828 23275.1699
0928 1421376171 23005.7148
0929 1421378515 22929.7090
0930 1421380859 22704.9297
0931 1421383203 22595.4336
0932 1421385546 22425.8691
0933 1421387890 22229.8594
0934 1421390234 22078.8164
0935 1421392578 21913.5508
0936 1421394921 21728.7520
0937 1421397265 21533.2969
0938 1421399609 21461.9375
0939 1421401953 21278.7246
0940 1421404296 20975.9199
0941 1421406640 20842.5039
0942 1421408984 20611.6035
0943 1421411328 20573.0273
0944 1421413671 20307.8203
0945 1421416015 20219.8086
0946 1421418359 19976.1641
0947 1421420703 19760.6152
0948 1421423046 19566.6035
0949 1421425390 19492.8535
0950 1421427734 19289.4062
0951 1421430078 19122.9043
0952 1421432421 18917.2852
0953 1421434765 18766.9141
0954 1421437109 18594.5957
0955 1421439453 18368.6602
0956 1421441796 18262.6309
0957 1421444140 18100.2598
0958 1421446484 17881.0000
0959 1421448828 17764.5508
0960 1421451171 17588.0078
0961 1421453515 17444.4160
0962 1421455859 17239.3828
0963 1421458203 17063.2734
0964 1421460546 16916.3301
0965 1421462890 16794.6738
0966 1421465234 16585.8164
0967 1421467578 16428.0527
0968 1421469921 16250.3564
0969 1421472265 16169.4365
0970 1421474609 15958.0244
0971 1421476953 15779.1670
0972 1421479296 15672.3740
0973 1421481640 15421.4004
0974 1421483984 15330.9414
0975 1421486328 15217.8086
0976 1421488671 15025.1611
0977 1421491015 14882.1533
0978 1421493359 14748.7891
0979 1421495703 14637.2158
0980 1421498046 14500.1064
0981 1421500390 14322.2939
0982 1421502734 14170.8701
0983 1421505078 14005.1211
0984 1421507421 13883.5879
0985 1421509765 13753.3154
0986 1421512109 13639.3027
0987 1421514453 13540.8711
0988 1421516796 13371.5850
0989 1421519140 13284.4219
0990 1421521484 13138.5928
0991 1421523828 13026.4482
0992 1421526171 12857.3369
0993 1421528515 12749.9150
0994 1421530859 12628.4150
0995 1421533203 12536.4932
0996 1421535546 12448.7197
0997 1421537890 12280.7314
0998 1421540234 12158.2578
0999 1421542578 12064.7598
1000 1421544921 11990.1445
1001 1421547265 11831.9053
1002 1421549609 11758.9766
1003 1421551953 11638.2910
1004 1421554296 11559.5264
1005 1421556640 11458.8301
1006 1421558984 11357.5361
1007 1421561328 11328.9238
1008 1421563671 11180.4072
1009 1421566015 11104.4023
1010 1421568359 10989.2529
1011 1421570703 10889.2324
1012 1421573046 10866.5312
1013 1421575390 10782.6748
1014 1421577734 10691.3936
1015 1421580078 10613.7529
1016 1421582421 10523.3809
1017 1421584765 10473.7393
1018 1421587109 10392.5693
1019 1421589453 10316.5127
1020 1421591796 10272.2998
1021 1421594140 10206.5088
1022 1421596484 10143.5869
1023 1421598828 10098.1426
