# File: 20-10-09T224359.ast
# NOTEA     = Foam Pyramid Horn
# NOTEB     = Spectral Integration
# OBSERVER  = Schultz
# DEVICE    = rtl=0,bias=0
# DATADIR   = ../data/
# SITE      = Foam Pyramid Horn
# CITY      = Chicago
# REGION    = Illinois
# COUNTRY   = US
# TELTYPE   = Foam Pyramid Horn
# FRAME     = TOPO
# GAIN1     = 49.6
# GAIN2     = 49.6
# GAIN3     = 49.6
# GAIN4     = 0.0
# Count     = 490000
# CenterFreq= 1420400000.0
# Bandwidth = 2400000.0
# Duration  = 305.838546
# DeltaX    = 5859.375
# TSYS      = 200.0
# TRX       = 100.0
# TRMS      = 2.0
# TINT      = 1.0
# KPERC     = 100.0
# GAINFACT  = 1.0
# BUNIT     = Counts
# NCHAN     = 1024
# NSPEC     = 1
# NTIME     = 0
# NSAMPLES  = 0
# EPEAK     = 4.10875183718
# ERMS      = 0.995973393526
# EMJD      = 58568.808999981004 
# REFCHAN   = 512.0
# REFSAMPL  = 256.0
# NAVE      = 700
# NMEDIAN   = 1024
# Fft_rate  = 5000
# UTC       = 2020-10-09 22:43:59.609076
# SECONDS   =       0.0000000000 
# LST       = 18:09:29.230
# AZ        = 180.0
# EL        = 40.0
# TELLON    = -87:37:48.000
# TELLAT    = +41:52:01.000
# RA        = 18:07:15.080
# DEC       = -08:09:40.700
# GALLON    = 20:34:32.20
# GALLAT    = +05:58:25.00
# ALT_SUN   = +05:29:28.9
# AZ_SUN    = +256:01:28.5
# ETAA      = 0.8
# ETAB      = 0.99
# POLANGLE  = 0.0
# TELSIZEAM = 1.0
# TELSIZEBM = 1.0
# AST_VERS  = 05.01
0000 1419201171 10301.7490
0001 1419203515 10282.4365
0002 1419205859 10185.5547
0003 1419208203 10171.9541
0004 1419210546 10120.6729
0005 1419212890 10100.9834
0006 1419215234 10028.9961
0007 1419217578 10000.2451
0008 1419219921 9917.0527
0009 1419222265 9900.4131
0010 1419224609 9867.4863
0011 1419226953 9815.0605
0012 1419229296 9810.7998
0013 1419231640 9759.9375
0014 1419233984 9723.6172
0015 1419236328 9688.5488
0016 1419238671 9660.6328
0017 1419241015 9681.9795
0018 1419243359 9654.1504
0019 1419245703 9657.6318
0020 1419248046 9594.8115
0021 1419250390 9593.5576
0022 1419252734 9583.3535
0023 1419255078 9571.1387
0024 1419257421 9560.4531
0025 1419259765 9581.3066
0026 1419262109 9569.2744
0027 1419264453 9560.4795
0028 1419266796 9658.0439
0029 1419269140 9625.3008
0030 1419271484 9625.4531
0031 1419273828 9660.7734
0032 1419276171 9688.7695
0033 1419278515 9760.0078
0034 1419280859 9751.4854
0035 1419283203 9777.0781
0036 1419285546 9774.7070
0037 1419287890 9855.8408
0038 1419290234 9910.0225
0039 1419292578 9966.2217
0040 1419294921 10053.6777
0041 1419297265 10126.6406
0042 1419299609 10147.1670
0043 1419301953 10263.8350
0044 1419304296 10340.7959
0045 1419306640 10394.3613
0046 1419308984 10474.9619
0047 1419311328 10570.3252
0048 1419313671 10677.3447
0049 1419316015 10773.6045
0050 1419318359 10860.4434
0051 1419320703 10982.3740
0052 1419323046 11069.4043
0053 1419325390 11228.7822
0054 1419327734 11321.7822
0055 1419330078 11422.3672
0056 1419332421 11656.5166
0057 1419334765 11733.2627
0058 1419337109 11852.2363
0059 1419339453 12023.8857
0060 1419341796 12191.8076
0061 1419344140 12332.6143
0062 1419346484 12455.5967
0063 1419348828 12621.0039
0064 1419351171 12721.3516
0065 1419353515 12882.5967
0066 1419355859 13109.2627
0067 1419358203 13235.3301
0068 1419360546 13451.7080
0069 1419362890 13587.9600
0070 1419365234 13796.8320
0071 1419367578 13971.1631
0072 1419369921 14119.5742
0073 1419372265 14358.0811
0074 1419374609 14493.5020
0075 1419376953 14651.0566
0076 1419379296 14830.7764
0077 1419381640 15038.7373
0078 1419383984 15248.1631
0079 1419386328 15411.2539
0080 1419388671 15645.9346
0081 1419391015 16010.4971
0082 1419393359 15937.9824
0083 1419395703 16147.3760
0084 1419398046 16228.9248
0085 1419400390 16487.8613
0086 1419402734 16697.6660
0087 1419405078 16905.1582
0088 1419407421 17025.8750
0089 1419409765 17209.5312
0090 1419412109 17483.4531
0091 1419414453 17651.0039
0092 1419416796 17808.6406
0093 1419419140 18029.4199
0094 1419421484 18192.2793
0095 1419423828 18423.7930
0096 1419426171 18575.1348
0097 1419428515 18734.5586
0098 1419430859 18997.7754
0099 1419433203 19197.4961
0100 1419435546 19360.0820
0101 1419437890 19570.9414
0102 1419440234 19769.9453
0103 1419442578 19946.9297
0104 1419444921 20090.1777
0105 1419447265 20253.6035
0106 1419449609 20437.0000
0107 1419451953 20658.7109
0108 1419454296 20851.0234
0109 1419456640 21000.1758
0110 1419458984 21151.0742
0111 1419461328 21350.9473
0112 1419463671 21570.5469
0113 1419466015 21746.8281
0114 1419468359 21861.2734
0115 1419470703 22051.5039
0116 1419473046 22299.3184
0117 1419475390 22442.1602
0118 1419477734 22641.0820
0119 1419480078 22798.1406
0120 1419482421 22844.9648
0121 1419484765 23128.4980
0122 1419487109 23340.2695
0123 1419489453 23423.6543
0124 1419491796 23664.7617
0125 1419494140 23845.2871
0126 1419496484 23969.2812
0127 1419498828 24239.1270
0128 1419501171 24310.1348
0129 1419503515 24431.6035
0130 1419505859 24657.6250
0131 1419508203 24788.0254
0132 1419510546 24891.0156
0133 1419512890 25054.9297
0134 1419515234 25253.2305
0135 1419517578 25334.5840
0136 1419519921 25551.9824
0137 1419522265 25745.8926
0138 1419524609 25905.8945
0139 1419526953 25995.3359
0140 1419529296 26143.9102
0141 1419531640 26192.0156
0142 1419533984 26382.6113
0143 1419536328 26658.5742
0144 1419538671 26697.6641
0145 1419541015 26829.4395
0146 1419543359 26934.6699
0147 1419545703 27130.8555
0148 1419548046 27151.3730
0149 1419550390 27303.8281
0150 1419552734 27526.1289
0151 1419555078 27639.4551
0152 1419557421 27685.9102
0153 1419559765 27914.0703
0154 1419562109 28037.9609
0155 1419564453 28127.8887
0156 1419566796 28118.3613
0157 1419569140 28402.9980
0158 1419571484 28394.0000
0159 1419573828 28478.9160
0160 1419576171 28671.1660
0161 1419578515 28789.0234
0162 1419580859 28885.6777
0163 1419583203 28968.7070
0164 1419585546 29062.2715
0165 1419587890 29077.2422
0166 1419590234 29186.3066
0167 1419592578 29357.0508
0168 1419594921 29418.5195
0169 1419597265 29575.4121
0170 1419599609 29611.0000
0171 1419601953 29741.0977
0172 1419604296 29823.9121
0173 1419606640 29887.9141
0174 1419608984 29906.5449
0175 1419611328 29951.8105
0176 1419613671 30174.7188
0177 1419616015 30235.8496
0178 1419618359 30240.3340
0179 1419620703 30519.4277
0180 1419623046 30421.9512
0181 1419625390 30405.4863
0182 1419627734 30612.3945
0183 1419630078 30627.1953
0184 1419632421 30663.8262
0185 1419634765 30696.4805
0186 1419637109 30726.2109
0187 1419639453 30803.4492
0188 1419641796 30979.6914
0189 1419644140 30995.9707
0190 1419646484 31047.1211
0191 1419648828 31105.2559
0192 1419651171 31161.5020
0193 1419653515 31012.1094
0194 1419655859 31214.9766
0195 1419658203 31282.2188
0196 1419660546 31313.1719
0197 1419662890 31329.3535
0198 1419665234 31363.5234
0199 1419667578 31313.8320
0200 1419669921 31388.7461
0201 1419672265 31417.7246
0202 1419674609 31447.0215
0203 1419676953 31524.0020
0204 1419679296 31626.6406
0205 1419681640 31568.6250
0206 1419683984 31531.2266
0207 1419686328 31663.0527
0208 1419688671 31795.9121
0209 1419691015 31749.6445
0210 1419693359 31800.0020
0211 1419695703 31716.0879
0212 1419698046 31561.1562
0213 1419700390 31731.1328
0214 1419702734 31903.3438
0215 1419705078 31694.7559
0216 1419707421 31837.0391
0217 1419709765 31764.5801
0218 1419712109 31857.7148
0219 1419714453 31780.6191
0220 1419716796 31781.9336
0221 1419719140 31711.8555
0222 1419721484 31869.0371
0223 1419723828 31951.8652
0224 1419726171 31791.1406
0225 1419728515 31828.0723
0226 1419730859 31809.2324
0227 1419733203 31815.1641
0228 1419735546 31871.1836
0229 1419737890 31845.2812
0230 1419740234 31850.6719
0231 1419742578 31879.5781
0232 1419744921 31957.2031
0233 1419747265 31945.6484
0234 1419749609 31726.8203
0235 1419751953 31795.3203
0236 1419754296 31878.9238
0237 1419756640 31735.4512
0238 1419758984 31786.6836
0239 1419761328 31754.2637
0240 1419763671 31803.6309
0241 1419766015 31859.8613
0242 1419768359 31700.9824
0243 1419770703 31843.8711
0244 1419773046 31689.8867
0245 1419775390 31695.9258
0246 1419777734 31788.3379
0247 1419780078 31803.4512
0248 1419782421 31883.5312
0249 1419784765 31689.0293
0250 1419787109 31702.3262
0251 1419789453 31729.9707
0252 1419791796 31631.9492
0253 1419794140 31654.6523
0254 1419796484 31751.5527
0255 1419798828 31751.4375
0256 1419801171 31822.1289
0257 1419803515 31608.7949
0258 1419805859 31578.4141
0259 1419808203 31745.1777
0260 1419810546 31652.8965
0261 1419812890 31623.2031
0262 1419815234 31553.1055
0263 1419817578 31598.0391
0264 1419819921 31646.0000
0265 1419822265 31696.4082
0266 1419824609 31530.9297
0267 1419826953 31501.3281
0268 1419829296 31530.2656
0269 1419831640 31562.9648
0270 1419833984 31605.2559
0271 1419836328 31613.4121
0272 1419838671 31567.1250
0273 1419841015 31525.9766
0274 1419843359 31334.2383
0275 1419845703 31414.1719
0276 1419848046 31299.3105
0277 1419850390 31439.9180
0278 1419852734 31418.0938
0279 1419855078 31425.7637
0280 1419857421 31566.9668
0281 1419859765 31419.4414
0282 1419862109 31405.8320
0283 1419864453 31467.5703
0284 1419866796 31121.6836
0285 1419869140 31212.8223
0286 1419871484 31216.8066
0287 1419873828 31353.5781
0288 1419876171 31287.6133
0289 1419878515 31245.5215
0290 1419880859 31280.6074
0291 1419883203 31257.3535
0292 1419885546 31357.9062
0293 1419887890 31269.2656
0294 1419890234 31176.4902
0295 1419892578 31181.1465
0296 1419894921 31179.5293
0297 1419897265 31093.9805
0298 1419899609 31010.3145
0299 1419901953 31102.3691
0300 1419904296 31104.8945
0301 1419906640 31141.3398
0302 1419908984 31065.1855
0303 1419911328 31004.1660
0304 1419913671 30922.2012
0305 1419916015 30931.3027
0306 1419918359 30950.0996
0307 1419920703 31041.5664
0308 1419923046 30990.9512
0309 1419925390 30931.9141
0310 1419927734 30823.7715
0311 1419930078 30761.2441
0312 1419932421 30902.5078
0313 1419934765 30845.7578
0314 1419937109 30826.1953
0315 1419939453 30942.6465
0316 1419941796 30869.7402
0317 1419944140 30868.9570
0318 1419946484 30859.4668
0319 1419948828 30894.5625
0320 1419951171 30690.5371
0321 1419953515 30763.8887
0322 1419955859 30738.6836
0323 1419958203 30851.6836
0324 1419960546 30775.3965
0325 1419962890 30781.9609
0326 1419965234 30803.6387
0327 1419967578 30732.2910
0328 1419969921 30751.5605
0329 1419972265 30809.6992
0330 1419974609 30987.9219
0331 1419976953 30876.7461
0332 1419979296 30855.5020
0333 1419981640 30868.0547
0334 1419983984 30763.2148
0335 1419986328 30819.2285
0336 1419988671 30950.4746
0337 1419991015 30778.3984
0338 1419993359 30956.5898
0339 1419995703 30907.2188
0340 1419998046 30929.7617
0341 1420000390 31021.0840
0342 1420002734 30892.5684
0343 1420005078 31014.0898
0344 1420007421 31036.2344
0345 1420009765 30990.6074
0346 1420012109 31147.8125
0347 1420014453 31051.2441
0348 1420016796 31096.5195
0349 1420019140 31049.7715
0350 1420021484 31049.5391
0351 1420023828 31101.6113
0352 1420026171 31159.0957
0353 1420028515 31142.7969
0354 1420030859 31188.1426
0355 1420033203 31265.8984
0356 1420035546 31286.0781
0357 1420037890 31153.7500
0358 1420040234 31369.6113
0359 1420042578 31239.3105
0360 1420044921 31162.9355
0361 1420047265 31409.3281
0362 1420049609 31461.1719
0363 1420051953 31605.7812
0364 1420054296 31528.9805
0365 1420056640 31613.4277
0366 1420058984 31655.0918
0367 1420061328 31652.3105
0368 1420063671 31646.5039
0369 1420066015 31776.8984
0370 1420068359 31842.1738
0371 1420070703 32021.8945
0372 1420073046 31910.0312
0373 1420075390 31891.1152
0374 1420077734 31837.5215
0375 1420080078 31892.9043
0376 1420082421 32103.8301
0377 1420084765 32033.7793
0378 1420087109 32124.2129
0379 1420089453 32028.5137
0380 1420091796 32244.0918
0381 1420094140 32317.3672
0382 1420096484 32300.7383
0383 1420098828 32413.3320
0384 1420101171 32527.9277
0385 1420103515 32480.4121
0386 1420105859 32438.5176
0387 1420108203 32561.4141
0388 1420110546 32609.9199
0389 1420112890 32736.1875
0390 1420115234 32788.2656
0391 1420117578 32756.6992
0392 1420119921 32783.6602
0393 1420122265 32951.1211
0394 1420124609 33043.2656
0395 1420126953 33054.0352
0396 1420129296 33126.6367
0397 1420131640 33170.6641
0398 1420133984 33141.8477
0399 1420136328 33360.0820
0400 1420138671 33386.2422
0401 1420141015 33498.9922
0402 1420143359 33417.8867
0403 1420145703 33555.9336
0404 1420148046 33632.6289
0405 1420150390 33571.0234
0406 1420152734 33614.4922
0407 1420155078 33802.1133
0408 1420157421 33837.6797
0409 1420159765 33898.9297
0410 1420162109 33918.5938
0411 1420164453 33959.9492
0412 1420166796 34165.5430
0413 1420169140 34163.2617
0414 1420171484 34095.2422
0415 1420173828 34077.7266
0416 1420176171 34367.7617
0417 1420178515 34368.2344
0418 1420180859 34419.5273
0419 1420183203 34448.2578
0420 1420185546 34587.4375
0421 1420187890 34590.7930
0422 1420190234 34784.6562
0423 1420192578 34910.4219
0424 1420194921 34857.7461
0425 1420197265 35068.4023
0426 1420199609 35033.0352
0427 1420201953 35226.4102
0428 1420204296 35270.0391
0429 1420206640 35214.6992
0430 1420208984 35441.5312
0431 1420211328 35436.3320
0432 1420213671 35619.4219
0433 1420216015 35849.6445
0434 1420218359 36020.2734
0435 1420220703 35967.9336
0436 1420223046 36166.4102
0437 1420225390 36160.3828
0438 1420227734 36482.4062
0439 1420230078 36488.9766
0440 1420232421 36483.4258
0441 1420234765 36771.1992
0442 1420237109 36873.2266
0443 1420239453 37067.4766
0444 1420241796 37213.4453
0445 1420244140 37322.1992
0446 1420246484 37460.3359
0447 1420248828 37491.6406
0448 1420251171 37618.3633
0449 1420253515 37782.4297
0450 1420255859 37814.6680
0451 1420258203 38154.4414
0452 1420260546 38084.4219
0453 1420262890 38172.1875
0454 1420265234 38299.9023
0455 1420267578 38486.9648
0456 1420269921 38559.4570
0457 1420272265 38685.6641
0458 1420274609 38853.8750
0459 1420276953 38953.2422
0460 1420279296 38958.4883
0461 1420281640 39286.2656
0462 1420283984 39187.0508
0463 1420286328 39296.1953
0464 1420288671 39393.8906
0465 1420291015 39372.4062
0466 1420293359 39514.1172
0467 1420295703 39702.0195
0468 1420298046 39506.8867
0469 1420300390 39635.8750
0470 1420302734 39567.2891
0471 1420305078 39500.6055
0472 1420307421 39740.4727
0473 1420309765 39806.9883
0474 1420312109 39960.4531
0475 1420314453 40246.5273
0476 1420316796 40354.4922
0477 1420319140 40405.8281
0478 1420321484 40856.7500
0479 1420323828 40861.2227
0480 1420326171 41142.8945
0481 1420328515 41194.0430
0482 1420330859 41330.0586
0483 1420333203 41452.2812
0484 1420335546 41450.9883
0485 1420337890 41332.3594
0486 1420340234 41343.3867
0487 1420342578 41240.5391
0488 1420344921 40989.1523
0489 1420347265 40713.1445
0490 1420349609 40461.3477
0491 1420351953 40159.3594
0492 1420354296 39824.7422
0493 1420356640 39468.0938
0494 1420358984 39178.9883
0495 1420361328 38891.9531
0496 1420363671 38540.5586
0497 1420366015 38418.8438
0498 1420368359 38113.3438
0499 1420370703 37906.2266
0500 1420373046 37765.3828
0501 1420375390 37445.1953
0502 1420377734 37346.1289
0503 1420380078 37091.3750
0504 1420382421 36856.2500
0505 1420384765 36743.5820
0506 1420387109 36747.6055
0507 1420389453 36616.0586
0508 1420391796 36772.4023
0509 1420394140 36662.3867
0510 1420396484 36448.6055
0511 1420398828 36298.0273
0512 1420401171 36323.3477
0513 1420403515 36256.3086
0514 1420405859 36190.5156
0515 1420408203 36318.9453
0516 1420410546 36214.8594
0517 1420412890 36217.0742
0518 1420415234 36180.5195
0519 1420417578 36086.9297
0520 1420419921 36121.2969
0521 1420422265 36207.2969
0522 1420424609 36096.0156
0523 1420426953 36039.1680
0524 1420429296 36115.5508
0525 1420431640 36051.2031
0526 1420433984 35970.8477
0527 1420436328 35972.5898
0528 1420438671 36047.7539
0529 1420441015 36033.2656
0530 1420443359 35874.4766
0531 1420445703 35761.4609
0532 1420448046 35873.6758
0533 1420450390 35888.6289
0534 1420452734 35860.6211
0535 1420455078 35858.9258
0536 1420457421 35800.0000
0537 1420459765 35835.7305
0538 1420462109 35693.2148
0539 1420464453 35802.9883
0540 1420466796 35737.7891
0541 1420469140 35661.1055
0542 1420471484 35743.9180
0543 1420473828 35665.0859
0544 1420476171 35636.9688
0545 1420478515 35577.8359
0546 1420480859 35759.4492
0547 1420483203 35778.2930
0548 1420485546 35706.5625
0549 1420487890 35529.8633
0550 1420490234 35472.1406
0551 1420492578 35340.5703
0552 1420494921 35536.7070
0553 1420497265 35347.6992
0554 1420499609 35384.6133
0555 1420501953 35425.3633
0556 1420504296 35380.5273
0557 1420506640 35345.6992
0558 1420508984 35319.4219
0559 1420511328 35200.1211
0560 1420513671 35221.2734
0561 1420516015 35143.4688
0562 1420518359 35053.6133
0563 1420520703 34952.3789
0564 1420523046 34929.7734
0565 1420525390 34798.0898
0566 1420527734 34808.0195
0567 1420530078 34806.4609
0568 1420532421 34741.1211
0569 1420534765 34785.3281
0570 1420537109 34721.7969
0571 1420539453 34637.7969
0572 1420541796 34572.0195
0573 1420544140 34572.8594
0574 1420546484 34464.5469
0575 1420548828 34353.2500
0576 1420551171 34230.2227
0577 1420553515 34176.8867
0578 1420555859 34171.1523
0579 1420558203 34200.6758
0580 1420560546 34069.2109
0581 1420562890 33979.6641
0582 1420565234 33874.5312
0583 1420567578 33913.4062
0584 1420569921 33921.6289
0585 1420572265 33864.0820
0586 1420574609 33755.1406
0587 1420576953 33626.5000
0588 1420579296 33532.9414
0589 1420581640 33430.6719
0590 1420583984 33364.0273
0591 1420586328 33306.9883
0592 1420588671 33336.1914
0593 1420591015 33179.7695
0594 1420593359 33300.6914
0595 1420595703 33244.1836
0596 1420598046 33209.2148
0597 1420600390 33109.9766
0598 1420602734 33075.9766
0599 1420605078 33006.8320
0600 1420607421 32804.1914
0601 1420609765 32925.4688
0602 1420612109 32841.2539
0603 1420614453 32620.1895
0604 1420616796 32576.1035
0605 1420619140 32672.0332
0606 1420621484 32645.0664
0607 1420623828 32601.2402
0608 1420626171 32466.3594
0609 1420628515 32462.1426
0610 1420630859 32370.6855
0611 1420633203 32367.7930
0612 1420635546 32417.8691
0613 1420637890 32240.1230
0614 1420640234 32258.1289
0615 1420642578 32188.4727
0616 1420644921 32203.0742
0617 1420647265 32029.5156
0618 1420649609 32083.2598
0619 1420651953 31857.5195
0620 1420654296 31957.1094
0621 1420656640 31879.3828
0622 1420658984 31851.7715
0623 1420661328 31867.0684
0624 1420663671 31735.7148
0625 1420666015 31697.0801
0626 1420668359 31614.0820
0627 1420670703 31564.1523
0628 1420673046 31557.8965
0629 1420675390 31519.7480
0630 1420677734 31668.5938
0631 1420680078 31542.9180
0632 1420682421 31440.0449
0633 1420684765 31355.4355
0634 1420687109 31312.7031
0635 1420689453 31364.2598
0636 1420691796 31336.6660
0637 1420694140 31170.4453
0638 1420696484 31179.8438
0639 1420698828 31216.9570
0640 1420701171 31141.0039
0641 1420703515 31021.0898
0642 1420705859 31110.6973
0643 1420708203 31044.0898
0644 1420710546 31137.1992
0645 1420712890 31103.7266
0646 1420715234 31014.4395
0647 1420717578 31063.2598
0648 1420719921 31045.8848
0649 1420722265 30937.5020
0650 1420724609 30911.4277
0651 1420726953 30841.2734
0652 1420729296 30931.3398
0653 1420731640 30851.2246
0654 1420733984 30781.9980
0655 1420736328 30681.1680
0656 1420738671 30852.0508
0657 1420741015 30757.2422
0658 1420743359 30647.4609
0659 1420745703 30679.5859
0660 1420748046 30592.2988
0661 1420750390 30597.4922
0662 1420752734 30604.2129
0663 1420755078 30595.7637
0664 1420757421 30529.4082
0665 1420759765 30543.8691
0666 1420762109 30531.0176
0667 1420764453 30614.4043
0668 1420766796 30467.2012
0669 1420769140 30463.1230
0670 1420771484 30385.7871
0671 1420773828 30477.1348
0672 1420776171 30504.3203
0673 1420778515 30547.4551
0674 1420780859 30468.0352
0675 1420783203 30422.8223
0676 1420785546 30439.6699
0677 1420787890 30476.1973
0678 1420790234 30469.6738
0679 1420792578 30372.4785
0680 1420794921 30428.4824
0681 1420797265 30318.4668
0682 1420799609 30362.5684
0683 1420801953 30405.1016
0684 1420804296 30373.0352
0685 1420806640 30379.8945
0686 1420808984 30416.7188
0687 1420811328 30335.3945
0688 1420813671 30429.9023
0689 1420816015 30431.8535
0690 1420818359 30389.5840
0691 1420820703 30476.4844
0692 1420823046 30350.7246
0693 1420825390 30411.4941
0694 1420827734 30493.7070
0695 1420830078 30373.2480
0696 1420832421 30399.1016
0697 1420834765 30457.1250
0698 1420837109 30463.5273
0699 1420839453 30509.6582
0700 1420841796 30464.4395
0701 1420844140 30566.7402
0702 1420846484 30516.5547
0703 1420848828 30492.1836
0704 1420851171 30522.0605
0705 1420853515 30457.8906
0706 1420855859 30611.4160
0707 1420858203 30739.5312
0708 1420860546 30542.5566
0709 1420862890 30741.4648
0710 1420865234 30757.5449
0711 1420867578 30667.5684
0712 1420869921 30672.1055
0713 1420872265 30862.0410
0714 1420874609 30764.8359
0715 1420876953 30757.2598
0716 1420879296 30817.7734
0717 1420881640 30927.5938
0718 1420883984 30855.6250
0719 1420886328 30982.4727
0720 1420888671 30986.4570
0721 1420891015 30829.6719
0722 1420893359 31038.6133
0723 1420895703 31020.6211
0724 1420898046 31065.9941
0725 1420900390 31100.4512
0726 1420902734 31050.2188
0727 1420905078 31011.2383
0728 1420907421 31077.0488
0729 1420909765 31082.1543
0730 1420912109 31147.7578
0731 1420914453 31235.6719
0732 1420916796 31234.8496
0733 1420919140 31337.4766
0734 1420921484 31369.6152
0735 1420923828 31338.3145
0736 1420926171 31567.8359
0737 1420928515 31530.5684
0738 1420930859 31559.9512
0739 1420933203 31633.7852
0740 1420935546 31632.3008
0741 1420937890 31585.1875
0742 1420940234 31507.5312
0743 1420942578 31585.2812
0744 1420944921 31675.6895
0745 1420947265 31714.4414
0746 1420949609 31851.6680
0747 1420951953 31823.1309
0748 1420954296 31912.6016
0749 1420956640 31970.7559
0750 1420958984 31951.2812
0751 1420961328 31987.7441
0752 1420963671 32053.1406
0753 1420966015 32053.6133
0754 1420968359 32174.2266
0755 1420970703 32199.9648
0756 1420973046 32351.0762
0757 1420975390 32304.0781
0758 1420977734 32338.3809
0759 1420980078 32324.9551
0760 1420982421 32381.0898
0761 1420984765 32381.4023
0762 1420987109 32572.7090
0763 1420989453 32512.6113
0764 1420991796 32417.7168
0765 1420994140 32627.9707
0766 1420996484 32670.2402
0767 1420998828 32673.1172
0768 1421001171 32674.5508
0769 1421003515 32792.8047
0770 1421005859 32878.7852
0771 1421008203 32752.3770
0772 1421010546 32811.9023
0773 1421012890 32855.8984
0774 1421015234 32993.9258
0775 1421017578 33097.2188
0776 1421019921 33105.6758
0777 1421022265 33065.0508
0778 1421024609 33276.2969
0779 1421026953 33180.0156
0780 1421029296 33117.5391
0781 1421031640 33210.5664
0782 1421033984 33204.3320
0783 1421036328 33286.1719
0784 1421038671 33379.6172
0785 1421041015 33404.8008
0786 1421043359 33428.3555
0787 1421045703 33527.3203
0788 1421048046 33598.4492
0789 1421050390 33588.8633
0790 1421052734 33561.8984
0791 1421055078 33635.3008
0792 1421057421 33565.7461
0793 1421059765 33649.4414
0794 1421062109 33768.0586
0795 1421064453 33722.3711
0796 1421066796 33739.1914
0797 1421069140 33822.6406
0798 1421071484 33860.4336
0799 1421073828 33915.9297
0800 1421076171 33813.7422
0801 1421078515 33969.4844
0802 1421080859 33955.6055
0803 1421083203 33996.0000
0804 1421085546 33873.8125
0805 1421087890 33904.2031
0806 1421090234 33920.0781
0807 1421092578 34020.9062
0808 1421094921 33958.9922
0809 1421097265 34073.0391
0810 1421099609 34117.9727
0811 1421101953 34166.4336
0812 1421104296 34171.8555
0813 1421106640 34087.9180
0814 1421108984 34059.6758
0815 1421111328 34076.3672
0816 1421113671 34270.6133
0817 1421116015 34118.5156
0818 1421118359 34119.8906
0819 1421120703 34013.2031
0820 1421123046 34013.6484
0821 1421125390 34054.0234
0822 1421127734 34100.1016
0823 1421130078 34146.7070
0824 1421132421 34120.5391
0825 1421134765 34102.9648
0826 1421137109 34155.0039
0827 1421139453 34145.0898
0828 1421141796 34076.6914
0829 1421144140 34058.0820
0830 1421146484 33955.8828
0831 1421148828 33982.2695
0832 1421151171 33976.0820
0833 1421153515 34043.9180
0834 1421155859 34082.0586
0835 1421158203 34018.9062
0836 1421160546 33861.1406
0837 1421162890 34013.4922
0838 1421165234 34012.7461
0839 1421167578 33950.0430
0840 1421169921 33946.8828
0841 1421172265 33776.9570
0842 1421174609 33752.6172
0843 1421176953 33821.7070
0844 1421179296 33661.3242
0845 1421181640 33740.8242
0846 1421183984 33704.0664
0847 1421186328 33459.8984
0848 1421188671 33516.1875
0849 1421191015 33515.6094
0850 1421193359 33613.0703
0851 1421195703 33323.9570
0852 1421198046 33299.0000
0853 1421200390 33263.7148
0854 1421202734 33157.2344
0855 1421205078 33086.5000
0856 1421207421 33013.9219
0857 1421209765 33009.2227
0858 1421212109 33017.7852
0859 1421214453 32953.8594
0860 1421216796 32881.8164
0861 1421219140 32791.1289
0862 1421221484 32755.3379
0863 1421223828 32749.5156
0864 1421226171 32545.8926
0865 1421228515 32565.5859
0866 1421230859 32387.5938
0867 1421233203 32361.9062
0868 1421235546 32277.7246
0869 1421237890 32076.8086
0870 1421240234 32131.8848
0871 1421242578 31944.7168
0872 1421244921 31869.2891
0873 1421247265 31694.5664
0874 1421249609 31643.7695
0875 1421251953 31686.1465
0876 1421254296 31452.9629
0877 1421256640 31463.4082
0878 1421258984 31265.3281
0879 1421261328 31130.2031
0880 1421263671 30957.0312
0881 1421266015 30840.8359
0882 1421268359 30731.7148
0883 1421270703 30631.3594
0884 1421273046 30615.6465
0885 1421275390 30474.4004
0886 1421277734 30365.6875
0887 1421280078 30283.8145
0888 1421282421 30105.8965
0889 1421284765 29866.6582
0890 1421287109 29889.0312
0891 1421289453 29769.4355
0892 1421291796 29667.9102
0893 1421294140 29502.6934
0894 1421296484 29350.2910
0895 1421298828 29053.4082
0896 1421301171 28927.1543
0897 1421303515 28805.2012
0898 1421305859 28688.1270
0899 1421308203 28596.7949
0900 1421310546 28460.0723
0901 1421312890 28290.8066
0902 1421315234 28104.2539
0903 1421317578 28057.5332
0904 1421319921 27962.3535
0905 1421322265 27764.7461
0906 1421324609 27475.4531
0907 1421326953 27373.5664
0908 1421329296 27157.6309
0909 1421331640 27054.0957
0910 1421333984 26842.2734
0911 1421336328 26730.0957
0912 1421338671 26649.7480
0913 1421341015 26413.3633
0914 1421343359 26291.9277
0915 1421345703 26128.3652
0916 1421348046 25979.4434
0917 1421350390 25774.2734
0918 1421352734 25624.5449
0919 1421355078 25387.1543
0920 1421357421 25227.4258
0921 1421359765 25005.2285
0922 1421362109 24893.5273
0923 1421364453 24721.1777
0924 1421366796 24502.2539
0925 1421369140 24362.9434
0926 1421371484 24154.3008
0927 1421373828 24026.2051
0928 1421376171 23885.2207
0929 1421378515 23625.4102
0930 1421380859 23388.0449
0931 1421383203 23315.9160
0932 1421385546 23131.2930
0933 1421387890 22980.4004
0934 1421390234 22770.9121
0935 1421392578 22546.2051
0936 1421394921 22341.0996
0937 1421397265 22257.0273
0938 1421399609 21990.3594
0939 1421401953 21868.7871
0940 1421404296 21686.1953
0941 1421406640 21469.0840
0942 1421408984 21306.1270
0943 1421411328 21115.3594
0944 1421413671 20952.0000
0945 1421416015 20767.6035
0946 1421418359 20593.5742
0947 1421420703 20385.2754
0948 1421423046 20241.4180
0949 1421425390 20034.7969
0950 1421427734 19856.5293
0951 1421430078 19718.2578
0952 1421432421 19545.2773
0953 1421434765 19399.9941
0954 1421437109 19190.7500
0955 1421439453 18985.8633
0956 1421441796 18805.0918
0957 1421444140 18672.7207
0958 1421446484 18428.6641
0959 1421448828 18290.2559
0960 1421451171 18068.7363
0961 1421453515 17899.2754
0962 1421455859 17788.1777
0963 1421458203 17638.8145
0964 1421460546 17405.7812
0965 1421462890 17274.1055
0966 1421465234 17053.3145
0967 1421467578 16857.4766
0968 1421469921 16743.0996
0969 1421472265 16558.0332
0970 1421474609 16384.4980
0971 1421476953 16332.1572
0972 1421479296 16102.0820
0973 1421481640 15949.3457
0974 1421483984 15810.8838
0975 1421486328 15686.0322
0976 1421488671 15507.4766
0977 1421491015 15271.7168
0978 1421493359 15198.1123
0979 1421495703 15044.3760
0980 1421498046 14912.0410
0981 1421500390 14749.8105
0982 1421502734 14577.0527
0983 1421505078 14483.5742
0984 1421507421 14349.7334
0985 1421509765 14172.2334
0986 1421512109 14040.2539
0987 1421514453 13903.8477
0988 1421516796 13852.1543
0989 1421519140 13692.4111
0990 1421521484 13508.1279
0991 1421523828 13403.2285
0992 1421526171 13283.7539
0993 1421528515 13103.0957
0994 1421530859 12989.9219
0995 1421533203 12870.5820
0996 1421535546 12754.6553
0997 1421537890 12647.6582
0998 1421540234 12542.9590
0999 1421542578 12397.2461
1000 1421544921 12311.0723
1001 1421547265 12261.1074
1002 1421549609 12081.2207
1003 1421551953 12029.1172
1004 1421554296 11917.5811
1005 1421556640 11776.7842
1006 1421558984 11714.4385
1007 1421561328 11645.0586
1008 1421563671 11505.6875
1009 1421566015 11384.3730
1010 1421568359 11350.5361
1011 1421570703 11252.8604
1012 1421573046 11142.5781
1013 1421575390 11131.9482
1014 1421577734 11010.9863
1015 1421580078 10916.0449
1016 1421582421 10841.0361
1017 1421584765 10787.2402
1018 1421587109 10729.8027
1019 1421589453 10642.0029
1020 1421591796 10578.9463
1021 1421594140 10480.0674
1022 1421596484 10459.0410
1023 1421598828 10385.2793
