# File: 20-10-10T004619.ast
# NOTEA     = Foam Pyramid Horn
# NOTEB     = Spectral Integration
# OBSERVER  = Schultz
# DEVICE    = rtl=0,bias=0
# DATADIR   = ../data/
# SITE      = Foam Pyramid Horn
# CITY      = Chicago
# REGION    = Illinois
# COUNTRY   = US
# TELTYPE   = Foam Pyramid Horn
# FRAME     = TOPO
# GAIN1     = 49.6
# GAIN2     = 49.6
# GAIN3     = 49.6
# GAIN4     = 0.0
# Count     = 490000
# CenterFreq= 1420400000.0
# Bandwidth = 2400000.0
# Duration  = 305.833624
# DeltaX    = 5859.375
# TSYS      = 200.0
# TRX       = 100.0
# TRMS      = 2.0
# TINT      = 1.0
# KPERC     = 100.0
# GAINFACT  = 1.0
# BUNIT     = Counts
# NCHAN     = 1024
# NSPEC     = 1
# NTIME     = 0
# NSAMPLES  = 0
# EPEAK     = 4.10875183718
# ERMS      = 0.995973393526
# EMJD      = 58568.808999981004 
# REFCHAN   = 512.0
# REFSAMPL  = 256.0
# NAVE      = 700
# NMEDIAN   = 1024
# Fft_rate  = 5000
# UTC       = 2020-10-10 00:46:19.651315
# SECONDS   =       0.0000000000 
# LST       = 20:12:09.370
# AZ        = 180.0
# EL        = 40.0
# TELLON    = -87:37:48.000
# TELLAT    = +41:52:01.000
# RA        = 20:09:55.740
# DEC       = -08:16:37.400
# GALLON    = 34:22:14.90
# GALLAT    = -21:11:12.80
# ALT_SUN   = -17:17:22.6
# AZ_SUN    = +276:31:52.3
# ETAA      = 0.8
# ETAB      = 0.99
# POLANGLE  = 0.0
# TELSIZEAM = 1.0
# TELSIZEBM = 1.0
# AST_VERS  = 05.01
0000 1419201171 10272.1650
0001 1419203515 10217.3203
0002 1419205859 10201.2324
0003 1419208203 10113.9688
0004 1419210546 10084.2764
0005 1419212890 10032.5283
0006 1419215234 9974.1152
0007 1419217578 9948.6885
0008 1419219921 9923.2451
0009 1419222265 9876.6641
0010 1419224609 9818.3701
0011 1419226953 9777.5654
0012 1419229296 9768.6699
0013 1419231640 9713.9766
0014 1419233984 9710.8857
0015 1419236328 9678.8828
0016 1419238671 9653.3789
0017 1419241015 9631.8486
0018 1419243359 9661.5059
0019 1419245703 9571.0400
0020 1419248046 9597.3193
0021 1419250390 9582.3760
0022 1419252734 9561.1084
0023 1419255078 9534.0625
0024 1419257421 9544.8457
0025 1419259765 9560.7100
0026 1419262109 9576.0020
0027 1419264453 9575.0098
0028 1419266796 9593.5420
0029 1419269140 9596.8008
0030 1419271484 9628.9258
0031 1419273828 9641.8027
0032 1419276171 9651.4727
0033 1419278515 9691.8174
0034 1419280859 9718.3213
0035 1419283203 9785.7461
0036 1419285546 9808.4404
0037 1419287890 9841.8809
0038 1419290234 9893.7168
0039 1419292578 9957.1514
0040 1419294921 9972.1836
0041 1419297265 10042.5752
0042 1419299609 10130.5664
0043 1419301953 10220.7988
0044 1419304296 10268.1709
0045 1419306640 10341.8145
0046 1419308984 10486.7764
0047 1419311328 10560.0225
0048 1419313671 10591.6436
0049 1419316015 10708.9746
0050 1419318359 10791.2998
0051 1419320703 10922.7354
0052 1419323046 11021.8057
0053 1419325390 11128.1035
0054 1419327734 11301.6162
0055 1419330078 11407.8721
0056 1419332421 11566.9922
0057 1419334765 11692.3984
0058 1419337109 11820.2158
0059 1419339453 11924.5322
0060 1419341796 12065.1074
0061 1419344140 12216.5215
0062 1419346484 12420.4639
0063 1419348828 12563.5693
0064 1419351171 12759.5146
0065 1419353515 12828.5176
0066 1419355859 12977.2520
0067 1419358203 13184.5205
0068 1419360546 13354.7852
0069 1419362890 13555.2861
0070 1419365234 13679.2305
0071 1419367578 13838.9922
0072 1419369921 14036.6309
0073 1419372265 14208.6455
0074 1419374609 14415.6689
0075 1419376953 14530.7891
0076 1419379296 14704.7734
0077 1419381640 14905.1982
0078 1419383984 15067.2568
0079 1419386328 15297.0479
0080 1419388671 15552.2529
0081 1419391015 15931.7852
0082 1419393359 15861.6504
0083 1419395703 16002.8955
0084 1419398046 16250.8242
0085 1419400390 16387.9258
0086 1419402734 16552.2227
0087 1419405078 16701.9688
0088 1419407421 16999.5449
0089 1419409765 17193.0488
0090 1419412109 17308.2207
0091 1419414453 17489.8164
0092 1419416796 17672.4629
0093 1419419140 17931.5430
0094 1419421484 18070.1699
0095 1419423828 18246.1035
0096 1419426171 18484.0527
0097 1419428515 18611.4668
0098 1419430859 18826.1621
0099 1419433203 19077.9785
0100 1419435546 19232.3809
0101 1419437890 19397.9453
0102 1419440234 19550.5547
0103 1419442578 19833.2773
0104 1419444921 20009.0020
0105 1419447265 20079.8301
0106 1419449609 20329.0000
0107 1419451953 20534.9941
0108 1419454296 20635.8203
0109 1419456640 20910.4336
0110 1419458984 21063.1973
0111 1419461328 21161.5078
0112 1419463671 21439.6992
0113 1419466015 21619.3203
0114 1419468359 21711.3789
0115 1419470703 21960.3652
0116 1419473046 22126.2402
0117 1419475390 22335.8594
0118 1419477734 22503.0625
0119 1419480078 22644.3945
0120 1419482421 22791.9863
0121 1419484765 22925.1875
0122 1419487109 23143.0195
0123 1419489453 23372.4453
0124 1419491796 23519.3652
0125 1419494140 23675.3652
0126 1419496484 23748.6426
0127 1419498828 24013.2148
0128 1419501171 24138.2207
0129 1419503515 24251.2637
0130 1419505859 24408.6797
0131 1419508203 24655.8105
0132 1419510546 24878.4121
0133 1419512890 24903.1133
0134 1419515234 25004.5996
0135 1419517578 25159.0762
0136 1419519921 25346.2891
0137 1419522265 25530.0781
0138 1419524609 25716.2207
0139 1419526953 25818.0645
0140 1419529296 26018.8359
0141 1419531640 26024.7148
0142 1419533984 26293.6465
0143 1419536328 26498.9707
0144 1419538671 26527.6094
0145 1419541015 26589.8906
0146 1419543359 26732.6602
0147 1419545703 26988.8320
0148 1419548046 27042.6328
0149 1419550390 27231.0840
0150 1419552734 27291.2266
0151 1419555078 27379.4082
0152 1419557421 27592.9082
0153 1419559765 27714.4004
0154 1419562109 27683.8672
0155 1419564453 27926.6191
0156 1419566796 28115.7383
0157 1419569140 28229.3418
0158 1419571484 28280.8164
0159 1419573828 28355.2539
0160 1419576171 28431.3555
0161 1419578515 28662.2246
0162 1419580859 28743.5723
0163 1419583203 28633.5781
0164 1419585546 28875.4258
0165 1419587890 29012.2930
0166 1419590234 29064.8672
0167 1419592578 29220.2344
0168 1419594921 29224.6328
0169 1419597265 29343.1523
0170 1419599609 29456.7051
0171 1419601953 29507.2188
0172 1419604296 29615.6367
0173 1419606640 29661.3594
0174 1419608984 29725.9121
0175 1419611328 29800.5391
0176 1419613671 29915.3555
0177 1419616015 29928.6426
0178 1419618359 30116.2598
0179 1419620703 30234.2656
0180 1419623046 30325.7402
0181 1419625390 30327.2070
0182 1419627734 30358.0020
0183 1419630078 30410.3945
0184 1419632421 30471.6172
0185 1419634765 30384.0898
0186 1419637109 30561.7734
0187 1419639453 30596.9980
0188 1419641796 30588.4414
0189 1419644140 30645.1445
0190 1419646484 30852.1055
0191 1419648828 30875.4805
0192 1419651171 30832.0938
0193 1419653515 30977.5371
0194 1419655859 30968.1074
0195 1419658203 31075.3262
0196 1419660546 31073.4531
0197 1419662890 31128.3359
0198 1419665234 31174.9043
0199 1419667578 31185.7676
0200 1419669921 31268.6426
0201 1419672265 31105.0742
0202 1419674609 31245.6465
0203 1419676953 31311.1367
0204 1419679296 31301.7051
0205 1419681640 31367.6367
0206 1419683984 31322.3730
0207 1419686328 31461.1602
0208 1419688671 31487.5059
0209 1419691015 31433.6875
0210 1419693359 31339.3418
0211 1419695703 31446.8555
0212 1419698046 31602.6797
0213 1419700390 31628.7598
0214 1419702734 31464.9082
0215 1419705078 31586.1582
0216 1419707421 31566.7734
0217 1419709765 31508.3184
0218 1419712109 31571.8301
0219 1419714453 31381.4336
0220 1419716796 31485.2344
0221 1419719140 31540.6660
0222 1419721484 31595.9590
0223 1419723828 31648.0898
0224 1419726171 31620.1152
0225 1419728515 31534.6523
0226 1419730859 31544.2285
0227 1419733203 31547.1445
0228 1419735546 31484.6875
0229 1419737890 31493.1738
0230 1419740234 31621.1309
0231 1419742578 31611.4121
0232 1419744921 31513.6914
0233 1419747265 31440.1504
0234 1419749609 31597.5098
0235 1419751953 31533.6426
0236 1419754296 31497.3926
0237 1419756640 31546.1152
0238 1419758984 31529.9180
0239 1419761328 31369.6602
0240 1419763671 31338.5664
0241 1419766015 31450.9551
0242 1419768359 31405.6934
0243 1419770703 31396.6348
0244 1419773046 31211.9707
0245 1419775390 31286.6113
0246 1419777734 31410.7207
0247 1419780078 31316.2910
0248 1419782421 31269.3926
0249 1419784765 31168.1875
0250 1419787109 31229.6836
0251 1419789453 31151.0879
0252 1419791796 31318.2168
0253 1419794140 31154.5234
0254 1419796484 31117.3770
0255 1419798828 31110.0801
0256 1419801171 31157.5137
0257 1419803515 31039.7227
0258 1419805859 30919.8984
0259 1419808203 31077.0508
0260 1419810546 31016.8555
0261 1419812890 30986.9570
0262 1419815234 30932.9922
0263 1419817578 30966.8418
0264 1419819921 30870.3301
0265 1419822265 30970.2520
0266 1419824609 30772.3496
0267 1419826953 30689.1250
0268 1419829296 30845.2969
0269 1419831640 30824.2168
0270 1419833984 30764.3281
0271 1419836328 30728.4336
0272 1419838671 30546.6738
0273 1419841015 30638.6270
0274 1419843359 30699.0273
0275 1419845703 30597.6992
0276 1419848046 30514.0234
0277 1419850390 30484.5078
0278 1419852734 30491.7227
0279 1419855078 30410.4531
0280 1419857421 30491.2949
0281 1419859765 30538.2559
0282 1419862109 30352.4395
0283 1419864453 30496.8555
0284 1419866796 30261.7363
0285 1419869140 30316.4961
0286 1419871484 30208.5801
0287 1419873828 30156.3008
0288 1419876171 30183.0684
0289 1419878515 30181.3301
0290 1419880859 30139.0293
0291 1419883203 30127.9336
0292 1419885546 30196.9355
0293 1419887890 30100.0820
0294 1419890234 30129.4414
0295 1419892578 30046.1211
0296 1419894921 30126.8652
0297 1419897265 30027.7441
0298 1419899609 29959.5684
0299 1419901953 30013.3047
0300 1419904296 29891.9980
0301 1419906640 29997.2949
0302 1419908984 29950.4648
0303 1419911328 29967.1211
0304 1419913671 29976.4844
0305 1419916015 29731.0488
0306 1419918359 29827.6230
0307 1419920703 29835.4902
0308 1419923046 29857.9375
0309 1419925390 29845.3301
0310 1419927734 29684.6367
0311 1419930078 29757.5195
0312 1419932421 29611.2559
0313 1419934765 29750.9941
0314 1419937109 29753.0410
0315 1419939453 29706.2520
0316 1419941796 29727.6172
0317 1419944140 29613.5488
0318 1419946484 29727.5605
0319 1419948828 29727.6582
0320 1419951171 29784.6582
0321 1419953515 29605.2715
0322 1419955859 29567.7051
0323 1419958203 29624.7656
0324 1419960546 29591.1113
0325 1419962890 29726.0488
0326 1419965234 29732.7852
0327 1419967578 29732.5840
0328 1419969921 29609.9590
0329 1419972265 29756.3770
0330 1419974609 29663.2051
0331 1419976953 29630.2676
0332 1419979296 29690.9551
0333 1419981640 29723.1074
0334 1419983984 29603.1875
0335 1419986328 29581.2324
0336 1419988671 29679.3652
0337 1419991015 29716.4648
0338 1419993359 29675.5820
0339 1419995703 29669.8516
0340 1419998046 29825.7812
0341 1420000390 29707.1504
0342 1420002734 29708.3496
0343 1420005078 29662.9648
0344 1420007421 29723.8105
0345 1420009765 29722.9082
0346 1420012109 29840.3945
0347 1420014453 29824.2070
0348 1420016796 29746.1641
0349 1420019140 29782.1621
0350 1420021484 29784.4473
0351 1420023828 29818.9707
0352 1420026171 29894.9570
0353 1420028515 29844.5469
0354 1420030859 29922.8789
0355 1420033203 29872.8203
0356 1420035546 29874.0078
0357 1420037890 29988.2422
0358 1420040234 30055.0332
0359 1420042578 29985.9707
0360 1420044921 30036.1621
0361 1420047265 30156.4375
0362 1420049609 30051.3164
0363 1420051953 30132.3125
0364 1420054296 30146.0859
0365 1420056640 30080.1289
0366 1420058984 30167.0781
0367 1420061328 30101.3945
0368 1420063671 30248.6250
0369 1420066015 30159.3477
0370 1420068359 30223.6387
0371 1420070703 30274.1016
0372 1420073046 30362.1680
0373 1420075390 30302.7109
0374 1420077734 30229.2578
0375 1420080078 30320.3496
0376 1420082421 30384.0625
0377 1420084765 30467.8496
0378 1420087109 30470.8945
0379 1420089453 30379.4258
0380 1420091796 30463.5840
0381 1420094140 30531.8516
0382 1420096484 30614.6289
0383 1420098828 30595.2637
0384 1420101171 30651.2441
0385 1420103515 30747.9297
0386 1420105859 30771.8203
0387 1420108203 30806.0254
0388 1420110546 30829.1406
0389 1420112890 30926.6035
0390 1420115234 30899.1777
0391 1420117578 30890.0234
0392 1420119921 31036.8984
0393 1420122265 31102.1543
0394 1420124609 31073.9609
0395 1420126953 31189.4102
0396 1420129296 31124.0820
0397 1420131640 31241.9375
0398 1420133984 31187.9277
0399 1420136328 31159.1152
0400 1420138671 31407.5156
0401 1420141015 31359.0293
0402 1420143359 31488.9336
0403 1420145703 31511.6016
0404 1420148046 31465.6270
0405 1420150390 31394.4473
0406 1420152734 31550.6719
0407 1420155078 31606.4922
0408 1420157421 31732.2305
0409 1420159765 31714.0781
0410 1420162109 31826.8223
0411 1420164453 31928.0938
0412 1420166796 31979.8477
0413 1420169140 32068.4336
0414 1420171484 31926.8867
0415 1420173828 32073.6289
0416 1420176171 32071.6562
0417 1420178515 32186.3633
0418 1420180859 32176.2754
0419 1420183203 32267.4941
0420 1420185546 32289.2090
0421 1420187890 32328.4121
0422 1420190234 32285.7520
0423 1420192578 32455.0195
0424 1420194921 32393.4375
0425 1420197265 32671.7754
0426 1420199609 32535.8867
0427 1420201953 32596.3340
0428 1420204296 32652.9648
0429 1420206640 32768.8633
0430 1420208984 32778.6602
0431 1420211328 32818.3945
0432 1420213671 32971.7305
0433 1420216015 32976.0508
0434 1420218359 33027.6836
0435 1420220703 33116.5234
0436 1420223046 33065.1133
0437 1420225390 33128.3203
0438 1420227734 33255.4102
0439 1420230078 33282.0273
0440 1420232421 33390.9531
0441 1420234765 33497.0859
0442 1420237109 33424.9844
0443 1420239453 33666.4141
0444 1420241796 33607.4492
0445 1420244140 33774.3438
0446 1420246484 33861.5078
0447 1420248828 34007.7539
0448 1420251171 34032.3008
0449 1420253515 34040.4883
0450 1420255859 34015.1523
0451 1420258203 34179.5586
0452 1420260546 34438.8320
0453 1420262890 34502.1562
0454 1420265234 34361.5039
0455 1420267578 34505.7383
0456 1420269921 34654.5586
0457 1420272265 34744.0391
0458 1420274609 34659.8984
0459 1420276953 34842.6250
0460 1420279296 35060.3594
0461 1420281640 35066.5547
0462 1420283984 35162.1016
0463 1420286328 35306.3320
0464 1420288671 35363.5039
0465 1420291015 35536.6289
0466 1420293359 35600.3828
0467 1420295703 35698.5430
0468 1420298046 35782.7266
0469 1420300390 35852.0938
0470 1420302734 35950.1875
0471 1420305078 36010.5273
0472 1420307421 36103.1641
0473 1420309765 36201.9805
0474 1420312109 36156.1953
0475 1420314453 36345.1328
0476 1420316796 36375.6758
0477 1420319140 36443.2266
0478 1420321484 36552.3555
0479 1420323828 36634.8086
0480 1420326171 36817.8047
0481 1420328515 36749.7578
0482 1420330859 36936.8828
0483 1420333203 37008.7070
0484 1420335546 37160.5117
0485 1420337890 37086.7539
0486 1420340234 37117.3750
0487 1420342578 36837.6016
0488 1420344921 36855.0586
0489 1420347265 36669.0391
0490 1420349609 36597.5664
0491 1420351953 36505.5195
0492 1420354296 36459.4727
0493 1420356640 36235.6367
0494 1420358984 36201.6562
0495 1420361328 36027.2070
0496 1420363671 36028.4727
0497 1420366015 35813.4258
0498 1420368359 35791.7031
0499 1420370703 35817.6797
0500 1420373046 35484.2344
0501 1420375390 35561.3086
0502 1420377734 35571.3945
0503 1420380078 35528.1523
0504 1420382421 35412.5742
0505 1420384765 35416.7227
0506 1420387109 35383.9531
0507 1420389453 35304.9180
0508 1420391796 35206.9531
0509 1420394140 35249.4844
0510 1420396484 35209.5391
0511 1420398828 35201.1367
0512 1420401171 35173.3047
0513 1420403515 35204.2031
0514 1420405859 35034.9180
0515 1420408203 35070.3828
0516 1420410546 35170.6875
0517 1420412890 35183.0547
0518 1420415234 35133.0234
0519 1420417578 35027.4727
0520 1420419921 35082.0312
0521 1420422265 34894.2266
0522 1420424609 34833.3203
0523 1420426953 34981.8984
0524 1420429296 34940.5664
0525 1420431640 34952.3555
0526 1420433984 34964.0312
0527 1420436328 34907.4375
0528 1420438671 34814.6914
0529 1420441015 34792.1875
0530 1420443359 34920.5977
0531 1420445703 34838.0703
0532 1420448046 34826.1719
0533 1420450390 34878.9492
0534 1420452734 34737.5273
0535 1420455078 34816.2773
0536 1420457421 34738.7500
0537 1420459765 34739.1094
0538 1420462109 34532.9062
0539 1420464453 34690.5547
0540 1420466796 34504.9727
0541 1420469140 34532.4336
0542 1420471484 34530.1289
0543 1420473828 34558.3867
0544 1420476171 34481.4258
0545 1420478515 34457.6406
0546 1420480859 34611.1367
0547 1420483203 34605.4102
0548 1420485546 34606.9766
0549 1420487890 34471.7695
0550 1420490234 34366.4102
0551 1420492578 34516.7734
0552 1420494921 34313.7031
0553 1420497265 34246.7109
0554 1420499609 34269.7695
0555 1420501953 34199.9609
0556 1420504296 34176.9297
0557 1420506640 34125.4375
0558 1420508984 34185.4336
0559 1420511328 34018.8672
0560 1420513671 34116.8008
0561 1420516015 34060.8750
0562 1420518359 33932.9180
0563 1420520703 33972.3984
0564 1420523046 34025.5234
0565 1420525390 33949.3555
0566 1420527734 33942.5938
0567 1420530078 33819.9141
0568 1420532421 33655.7930
0569 1420534765 33716.3633
0570 1420537109 33721.7266
0571 1420539453 33584.4062
0572 1420541796 33713.6172
0573 1420544140 33796.3633
0574 1420546484 33423.6484
0575 1420548828 33467.3750
0576 1420551171 33494.1406
0577 1420553515 33365.7266
0578 1420555859 33361.0391
0579 1420558203 33270.0469
0580 1420560546 33181.9023
0581 1420562890 33330.5547
0582 1420565234 33238.6055
0583 1420567578 33299.8828
0584 1420569921 33191.1641
0585 1420572265 33127.1992
0586 1420574609 33038.3203
0587 1420576953 32990.9727
0588 1420579296 32898.8750
0589 1420581640 33038.3164
0590 1420583984 32957.0039
0591 1420586328 32820.5391
0592 1420588671 32841.1562
0593 1420591015 32720.1133
0594 1420593359 32734.6367
0595 1420595703 32672.0664
0596 1420598046 32675.5625
0597 1420600390 32647.8848
0598 1420602734 32643.7461
0599 1420605078 32555.1484
0600 1420607421 32551.0508
0601 1420609765 32483.8887
0602 1420612109 32468.6016
0603 1420614453 32298.2559
0604 1420616796 32334.1211
0605 1420619140 32207.3496
0606 1420621484 32289.1562
0607 1420623828 32133.8926
0608 1420626171 32151.9629
0609 1420628515 32158.3945
0610 1420630859 32168.9375
0611 1420633203 32043.9219
0612 1420635546 31961.1777
0613 1420637890 31931.8730
0614 1420640234 31830.1934
0615 1420642578 31878.9688
0616 1420644921 31854.5957
0617 1420647265 31933.4141
0618 1420649609 31740.4297
0619 1420651953 31704.1484
0620 1420654296 31565.2695
0621 1420656640 31572.1309
0622 1420658984 31652.6621
0623 1420661328 31571.7012
0624 1420663671 31594.5391
0625 1420666015 31468.1074
0626 1420668359 31477.9688
0627 1420670703 31320.5488
0628 1420673046 31382.7461
0629 1420675390 31410.1816
0630 1420677734 31235.9043
0631 1420680078 31146.4277
0632 1420682421 31266.5879
0633 1420684765 31309.1680
0634 1420687109 31234.9043
0635 1420689453 31219.0625
0636 1420691796 31207.8809
0637 1420694140 30984.9395
0638 1420696484 31051.0215
0639 1420698828 31108.3418
0640 1420701171 30931.5430
0641 1420703515 30929.3555
0642 1420705859 31010.3398
0643 1420708203 30905.1504
0644 1420710546 30870.6660
0645 1420712890 30842.1641
0646 1420715234 30860.7012
0647 1420717578 30788.2812
0648 1420719921 30725.5293
0649 1420722265 30700.6426
0650 1420724609 30802.9980
0651 1420726953 30660.1797
0652 1420729296 30639.2148
0653 1420731640 30574.9102
0654 1420733984 30664.3027
0655 1420736328 30750.3691
0656 1420738671 30608.4824
0657 1420741015 30767.0547
0658 1420743359 30708.2129
0659 1420745703 30620.4336
0660 1420748046 30449.3379
0661 1420750390 30499.7422
0662 1420752734 30496.3613
0663 1420755078 30508.6152
0664 1420757421 30541.8555
0665 1420759765 30481.6387
0666 1420762109 30497.5508
0667 1420764453 30458.5723
0668 1420766796 30344.3320
0669 1420769140 30458.5840
0670 1420771484 30308.8125
0671 1420773828 30443.6113
0672 1420776171 30308.2480
0673 1420778515 30323.5938
0674 1420780859 30379.4355
0675 1420783203 30219.1016
0676 1420785546 30328.8320
0677 1420787890 30317.7070
0678 1420790234 30309.4590
0679 1420792578 30266.7227
0680 1420794921 30303.3652
0681 1420797265 30278.9141
0682 1420799609 30358.4258
0683 1420801953 30226.5469
0684 1420804296 30290.9082
0685 1420806640 30253.6660
0686 1420808984 30365.2871
0687 1420811328 30429.1895
0688 1420813671 30193.7910
0689 1420816015 30344.9238
0690 1420818359 30254.6426
0691 1420820703 30300.6230
0692 1420823046 30327.7930
0693 1420825390 30291.0840
0694 1420827734 30258.2637
0695 1420830078 30296.8535
0696 1420832421 30385.3750
0697 1420834765 30387.1855
0698 1420837109 30319.8945
0699 1420839453 30364.8203
0700 1420841796 30344.5898
0701 1420844140 30396.8281
0702 1420846484 30405.1484
0703 1420848828 30424.8398
0704 1420851171 30330.9980
0705 1420853515 30498.3945
0706 1420855859 30518.4551
0707 1420858203 30543.8887
0708 1420860546 30519.0039
0709 1420862890 30545.5059
0710 1420865234 30599.8691
0711 1420867578 30551.0156
0712 1420869921 30529.0273
0713 1420872265 30590.0977
0714 1420874609 30621.6523
0715 1420876953 30606.6133
0716 1420879296 30595.7676
0717 1420881640 30690.2090
0718 1420883984 30654.5234
0719 1420886328 30736.4258
0720 1420888671 30814.6855
0721 1420891015 30864.7168
0722 1420893359 30842.0605
0723 1420895703 30894.3613
0724 1420898046 30915.2559
0725 1420900390 30988.7285
0726 1420902734 30988.6016
0727 1420905078 31050.9785
0728 1420907421 31021.3438
0729 1420909765 31141.5391
0730 1420912109 31152.9414
0731 1420914453 31239.7422
0732 1420916796 31143.4707
0733 1420919140 31228.6484
0734 1420921484 31207.3750
0735 1420923828 31308.2246
0736 1420926171 31382.2656
0737 1420928515 31406.4336
0738 1420930859 31355.8848
0739 1420933203 31510.4551
0740 1420935546 31514.9863
0741 1420937890 31570.4668
0742 1420940234 31617.8027
0743 1420942578 31721.6582
0744 1420944921 31629.2578
0745 1420947265 31704.1973
0746 1420949609 31716.2363
0747 1420951953 31812.0859
0748 1420954296 31726.8223
0749 1420956640 31854.3906
0750 1420958984 31834.4766
0751 1420961328 31924.0508
0752 1420963671 31993.4902
0753 1420966015 31990.5059
0754 1420968359 31961.2129
0755 1420970703 32052.6973
0756 1420973046 32124.9590
0757 1420975390 32212.7344
0758 1420977734 32160.1836
0759 1420980078 32296.9082
0760 1420982421 32390.2188
0761 1420984765 32491.4141
0762 1420987109 32518.2969
0763 1420989453 32351.2969
0764 1420991796 32633.9609
0765 1420994140 32615.7188
0766 1420996484 32457.8242
0767 1420998828 32584.8867
0768 1421001171 32611.3105
0769 1421003515 32662.1562
0770 1421005859 32546.1641
0771 1421008203 32732.9219
0772 1421010546 32788.5703
0773 1421012890 32775.3672
0774 1421015234 32820.6680
0775 1421017578 32984.6367
0776 1421019921 33021.3281
0777 1421022265 33015.0586
0778 1421024609 32973.4531
0779 1421026953 33074.5000
0780 1421029296 33069.3281
0781 1421031640 33163.2617
0782 1421033984 33189.1133
0783 1421036328 33260.6836
0784 1421038671 33211.6289
0785 1421041015 33260.9922
0786 1421043359 33222.3203
0787 1421045703 33505.6719
0788 1421048046 33477.0312
0789 1421050390 33449.0898
0790 1421052734 33442.8086
0791 1421055078 33406.4727
0792 1421057421 33587.7500
0793 1421059765 33555.4141
0794 1421062109 33679.5352
0795 1421064453 33551.8164
0796 1421066796 33632.3750
0797 1421069140 33714.9141
0798 1421071484 33908.4180
0799 1421073828 33683.9062
0800 1421076171 33764.4453
0801 1421078515 33758.8320
0802 1421080859 33884.4492
0803 1421083203 33765.1523
0804 1421085546 33813.1562
0805 1421087890 33783.2227
0806 1421090234 33847.6133
0807 1421092578 33738.4023
0808 1421094921 33867.3984
0809 1421097265 33973.6758
0810 1421099609 34042.1289
0811 1421101953 33994.9180
0812 1421104296 33982.9766
0813 1421106640 34063.0859
0814 1421108984 33989.0000
0815 1421111328 33869.7031
0816 1421113671 33967.6875
0817 1421116015 33982.5625
0818 1421118359 34005.6875
0819 1421120703 34041.6250
0820 1421123046 33961.8320
0821 1421125390 33885.2656
0822 1421127734 34135.0938
0823 1421130078 34008.0117
0824 1421132421 34171.7852
0825 1421134765 33985.0859
0826 1421137109 33973.2188
0827 1421139453 33997.9766
0828 1421141796 33914.3164
0829 1421144140 33911.3789
0830 1421146484 33941.0234
0831 1421148828 33856.9414
0832 1421151171 33926.5664
0833 1421153515 33863.8789
0834 1421155859 33758.5781
0835 1421158203 33867.4531
0836 1421160546 33882.2656
0837 1421162890 33767.4766
0838 1421165234 33733.3594
0839 1421167578 33737.3203
0840 1421169921 33729.9922
0841 1421172265 33717.9023
0842 1421174609 33672.8008
0843 1421176953 33648.9766
0844 1421179296 33580.5781
0845 1421181640 33595.1172
0846 1421183984 33425.6641
0847 1421186328 33571.0625
0848 1421188671 33466.8945
0849 1421191015 33392.1367
0850 1421193359 33316.6133
0851 1421195703 33295.8438
0852 1421198046 33221.2109
0853 1421200390 33160.8203
0854 1421202734 33009.8242
0855 1421205078 32917.3203
0856 1421207421 32889.3477
0857 1421209765 33029.9297
0858 1421212109 32962.3203
0859 1421214453 32628.7070
0860 1421216796 32628.9043
0861 1421219140 32764.5332
0862 1421221484 32610.7988
0863 1421223828 32527.9219
0864 1421226171 32339.0723
0865 1421228515 32285.0234
0866 1421230859 32144.4473
0867 1421233203 32099.3691
0868 1421235546 32032.7754
0869 1421237890 31862.7070
0870 1421240234 31850.7734
0871 1421242578 31839.7402
0872 1421244921 31655.6348
0873 1421247265 31532.4043
0874 1421249609 31476.0273
0875 1421251953 31462.2051
0876 1421254296 31331.6035
0877 1421256640 31237.7285
0878 1421258984 31067.8965
0879 1421261328 30941.9902
0880 1421263671 30799.8828
0881 1421266015 30869.8789
0882 1421268359 30619.9258
0883 1421270703 30534.3789
0884 1421273046 30363.6230
0885 1421275390 30211.9004
0886 1421277734 30171.0645
0887 1421280078 29949.9453
0888 1421282421 30040.2812
0889 1421284765 29869.7832
0890 1421287109 29710.4512
0891 1421289453 29550.5273
0892 1421291796 29333.5801
0893 1421294140 29218.4238
0894 1421296484 29068.7109
0895 1421298828 29044.8320
0896 1421301171 28886.4590
0897 1421303515 28737.3770
0898 1421305859 28423.1094
0899 1421308203 28356.4531
0900 1421310546 28121.2930
0901 1421312890 28086.3125
0902 1421315234 27936.6699
0903 1421317578 27807.6953
0904 1421319921 27703.1250
0905 1421322265 27540.3789
0906 1421324609 27440.7266
0907 1421326953 27143.3984
0908 1421329296 26992.3496
0909 1421331640 26820.1523
0910 1421333984 26712.4453
0911 1421336328 26550.5762
0912 1421338671 26406.4512
0913 1421341015 26301.4414
0914 1421343359 26113.7520
0915 1421345703 25878.4355
0916 1421348046 25691.7168
0917 1421350390 25608.5117
0918 1421352734 25378.9316
0919 1421355078 25204.4160
0920 1421357421 25057.7148
0921 1421359765 24907.1602
0922 1421362109 24796.9277
0923 1421364453 24555.5117
0924 1421366796 24400.0645
0925 1421369140 24227.9551
0926 1421371484 23976.2656
0927 1421373828 23867.2207
0928 1421376171 23728.2695
0929 1421378515 23493.6289
0930 1421380859 23389.1680
0931 1421383203 23167.6367
0932 1421385546 22944.6250
0933 1421387890 22824.7266
0934 1421390234 22604.1836
0935 1421392578 22483.2695
0936 1421394921 22301.8066
0937 1421397265 22084.0020
0938 1421399609 21930.7402
0939 1421401953 21761.7578
0940 1421404296 21578.3965
0941 1421406640 21334.1777
0942 1421408984 21207.2422
0943 1421411328 21071.9551
0944 1421413671 20866.6816
0945 1421416015 20723.8867
0946 1421418359 20538.8438
0947 1421420703 20298.3594
0948 1421423046 20102.8828
0949 1421425390 19936.8203
0950 1421427734 19699.5898
0951 1421430078 19667.5059
0952 1421432421 19377.4648
0953 1421434765 19211.3555
0954 1421437109 19039.4258
0955 1421439453 18884.7598
0956 1421441796 18713.0684
0957 1421444140 18561.0605
0958 1421446484 18304.4355
0959 1421448828 18187.2363
0960 1421451171 18011.0723
0961 1421453515 17863.5664
0962 1421455859 17716.9590
0963 1421458203 17522.2949
0964 1421460546 17356.0820
0965 1421462890 17174.6211
0966 1421465234 16939.4727
0967 1421467578 16848.8652
0968 1421469921 16669.8477
0969 1421472265 16488.9395
0970 1421474609 16385.7324
0971 1421476953 16185.8057
0972 1421479296 16030.5127
0973 1421481640 15857.2949
0974 1421483984 15711.2227
0975 1421486328 15569.1152
0976 1421488671 15380.6904
0977 1421491015 15252.3330
0978 1421493359 15047.6289
0979 1421495703 14927.5176
0980 1421498046 14790.4258
0981 1421500390 14697.0664
0982 1421502734 14528.9072
0983 1421505078 14355.0547
0984 1421507421 14262.3760
0985 1421509765 14040.9297
0986 1421512109 13937.8428
0987 1421514453 13811.3271
0988 1421516796 13700.1406
0989 1421519140 13614.6113
0990 1421521484 13377.8555
0991 1421523828 13290.9102
0992 1421526171 13185.2344
0993 1421528515 13040.0684
0994 1421530859 12923.6426
0995 1421533203 12751.7861
0996 1421535546 12711.9355
0997 1421537890 12579.6338
0998 1421540234 12459.0332
0999 1421542578 12372.4385
1000 1421544921 12242.4609
1001 1421547265 12121.1406
1002 1421549609 12050.3008
1003 1421551953 11947.0615
1004 1421554296 11819.7432
1005 1421556640 11728.6719
1006 1421558984 11610.5518
1007 1421561328 11530.3350
1008 1421563671 11441.1533
1009 1421566015 11365.9648
1010 1421568359 11279.8555
1011 1421570703 11171.4717
1012 1421573046 11054.8008
1013 1421575390 11046.4170
1014 1421577734 10923.1582
1015 1421580078 10850.7441
1016 1421582421 10816.9424
1017 1421584765 10715.5869
1018 1421587109 10631.2510
1019 1421589453 10618.1318
1020 1421591796 10508.4346
1021 1421594140 10437.3770
1022 1421596484 10381.0850
1023 1421598828 10370.4473
