# File: 20-10-09T210938.ast
# NOTEA     = Foam Pyramid Horn
# NOTEB     = Spectral Integration
# OBSERVER  = Schultz
# DEVICE    = rtl=0,bias=0
# DATADIR   = ../data/
# SITE      = Foam Pyramid Horn
# CITY      = Chicago
# REGION    = Illinois
# COUNTRY   = US
# TELTYPE   = Foam Pyramid Horn
# FRAME     = TOPO
# GAIN1     = 49.6
# GAIN2     = 49.6
# GAIN3     = 49.6
# GAIN4     = 0.0
# Count     = 490000
# CenterFreq= 1420400000.0
# Bandwidth = 2400000.0
# Duration  = 305.501139
# DeltaX    = 5859.375
# TSYS      = 200.0
# TRX       = 100.0
# TRMS      = 2.0
# TINT      = 1.0
# KPERC     = 100.0
# GAINFACT  = 1.0
# BUNIT     = Counts
# NCHAN     = 1024
# NSPEC     = 1
# NTIME     = 0
# NSAMPLES  = 0
# EPEAK     = 4.10875183718
# ERMS      = 0.995973393526
# EMJD      = 58568.808999981004 
# REFCHAN   = 512.0
# REFSAMPL  = 256.0
# NAVE      = 700
# NMEDIAN   = 1024
# Fft_rate  = 5000
# UTC       = 2020-10-09 21:09:38.770728
# SECONDS   =       0.0000000000 
# LST       = 16:34:52.900
# AZ        = 180.0
# EL        = 90.0
# TELLON    = -87:37:48.000
# TELLAT    = +41:52:01.000
# RA        = 16:33:33.300
# DEC       = +41:56:49.000
# GALLON    = 66:14:36.50
# GALLAT    = +42:48:01.80
# ALT_SUN   = +21:34:32.4
# AZ_SUN    = +238:32:39.8
# ETAA      = 0.8
# ETAB      = 0.99
# POLANGLE  = 0.0
# TELSIZEAM = 1.0
# TELSIZEBM = 1.0
# AST_VERS  = 05.01
0000 1419201171 8556.9482
0001 1419203515 8549.1191
0002 1419205859 8500.6074
0003 1419208203 8417.2861
0004 1419210546 8413.5986
0005 1419212890 8366.7061
0006 1419215234 8314.8906
0007 1419217578 8304.3193
0008 1419219921 8225.1152
0009 1419222265 8241.7061
0010 1419224609 8185.0439
0011 1419226953 8136.4199
0012 1419229296 8138.9297
0013 1419231640 8103.2754
0014 1419233984 8067.4927
0015 1419236328 8074.2974
0016 1419238671 8041.6646
0017 1419241015 8017.9087
0018 1419243359 7997.4253
0019 1419245703 8012.9683
0020 1419248046 7990.2671
0021 1419250390 7968.0288
0022 1419252734 7986.4233
0023 1419255078 8013.1802
0024 1419257421 7948.5693
0025 1419259765 7965.5645
0026 1419262109 8009.6167
0027 1419264453 7999.6548
0028 1419266796 8002.7881
0029 1419269140 7986.3745
0030 1419271484 8009.7466
0031 1419273828 8055.4141
0032 1419276171 8064.1587
0033 1419278515 8122.8887
0034 1419280859 8123.4766
0035 1419283203 8148.5825
0036 1419285546 8186.1431
0037 1419287890 8191.9980
0038 1419290234 8272.0635
0039 1419292578 8330.1836
0040 1419294921 8382.5215
0041 1419297265 8419.0068
0042 1419299609 8479.9844
0043 1419301953 8561.5430
0044 1419304296 8617.0557
0045 1419306640 8664.4902
0046 1419308984 8746.9404
0047 1419311328 8799.3115
0048 1419313671 8883.5234
0049 1419316015 8962.6641
0050 1419318359 9048.9238
0051 1419320703 9168.8281
0052 1419323046 9278.4531
0053 1419325390 9364.2012
0054 1419327734 9481.8447
0055 1419330078 9592.5176
0056 1419332421 9699.9736
0057 1419334765 9812.8262
0058 1419337109 9899.0820
0059 1419339453 10086.1299
0060 1419341796 10155.4678
0061 1419344140 10272.3682
0062 1419346484 10422.5479
0063 1419348828 10529.8418
0064 1419351171 10703.4541
0065 1419353515 10835.3428
0066 1419355859 10956.6836
0067 1419358203 11114.9307
0068 1419360546 11205.3516
0069 1419362890 11359.5098
0070 1419365234 11535.2822
0071 1419367578 11672.8564
0072 1419369921 11786.4902
0073 1419372265 11934.5947
0074 1419374609 12090.3125
0075 1419376953 12216.5137
0076 1419379296 12379.4902
0077 1419381640 12544.2949
0078 1419383984 12746.0127
0079 1419386328 12838.8613
0080 1419388671 13001.8955
0081 1419391015 13193.2002
0082 1419393359 13360.7656
0083 1419395703 13495.6992
0084 1419398046 13665.1514
0085 1419400390 13810.4258
0086 1419402734 13938.8730
0087 1419405078 14151.0293
0088 1419407421 14298.4453
0089 1419409765 14445.8418
0090 1419412109 14589.3457
0091 1419414453 14754.5508
0092 1419416796 14886.0635
0093 1419419140 15100.0713
0094 1419421484 15246.5752
0095 1419423828 15351.0127
0096 1419426171 15537.2178
0097 1419428515 15681.1504
0098 1419430859 15852.0156
0099 1419433203 16043.0527
0100 1419435546 16191.0850
0101 1419437890 16341.4824
0102 1419440234 16504.6309
0103 1419442578 16654.6973
0104 1419444921 16730.0723
0105 1419447265 17003.0742
0106 1419449609 17145.1055
0107 1419451953 17220.6836
0108 1419454296 17468.9434
0109 1419456640 17573.8711
0110 1419458984 17757.3867
0111 1419461328 17886.1855
0112 1419463671 17984.3242
0113 1419466015 18158.1934
0114 1419468359 18310.3613
0115 1419470703 18486.5859
0116 1419473046 18623.8965
0117 1419475390 18770.0293
0118 1419477734 18903.7305
0119 1419480078 19093.5293
0120 1419482421 19143.7520
0121 1419484765 19376.9883
0122 1419487109 19446.0703
0123 1419489453 19634.7168
0124 1419491796 19737.6094
0125 1419494140 19807.4160
0126 1419496484 20056.4023
0127 1419498828 20211.2793
0128 1419501171 20279.2012
0129 1419503515 20433.6328
0130 1419505859 20694.5117
0131 1419508203 20764.6914
0132 1419510546 20772.5664
0133 1419512890 21012.2188
0134 1419515234 21149.5977
0135 1419517578 21328.4199
0136 1419519921 21372.4902
0137 1419522265 21610.6934
0138 1419524609 21612.9570
0139 1419526953 21717.7480
0140 1419529296 21825.3711
0141 1419531640 21996.7949
0142 1419533984 22065.3379
0143 1419536328 22256.0801
0144 1419538671 22301.0664
0145 1419541015 22368.9297
0146 1419543359 22553.3203
0147 1419545703 22611.1855
0148 1419548046 22724.4355
0149 1419550390 22810.3379
0150 1419552734 22984.6641
0151 1419555078 23089.1719
0152 1419557421 23197.0605
0153 1419559765 23251.4160
0154 1419562109 23401.7227
0155 1419564453 23605.3496
0156 1419566796 23532.8398
0157 1419569140 23616.4844
0158 1419571484 23787.9590
0159 1419573828 23895.5586
0160 1419576171 23927.8477
0161 1419578515 24030.7461
0162 1419580859 24056.4922
0163 1419583203 24191.0742
0164 1419585546 24266.8926
0165 1419587890 24353.7383
0166 1419590234 24341.8809
0167 1419592578 24571.5820
0168 1419594921 24635.1523
0169 1419597265 24716.0254
0170 1419599609 24744.6465
0171 1419601953 24888.7266
0172 1419604296 24891.3750
0173 1419606640 24957.0547
0174 1419608984 24994.9902
0175 1419611328 25068.6523
0176 1419613671 25206.2793
0177 1419616015 25280.9238
0178 1419618359 25276.4512
0179 1419620703 25299.9512
0180 1419623046 25360.9023
0181 1419625390 25464.8223
0182 1419627734 25531.8633
0183 1419630078 25579.5117
0184 1419632421 25627.9824
0185 1419634765 25677.7168
0186 1419637109 25694.9219
0187 1419639453 25760.0898
0188 1419641796 25881.3809
0189 1419644140 25918.8652
0190 1419646484 25883.8633
0191 1419648828 25972.1484
0192 1419651171 26063.4023
0193 1419653515 25941.6523
0194 1419655859 26033.8711
0195 1419658203 26143.4512
0196 1419660546 26079.7285
0197 1419662890 26153.9434
0198 1419665234 26119.6621
0199 1419667578 26206.3262
0200 1419669921 26264.5898
0201 1419672265 26264.2578
0202 1419674609 26238.7520
0203 1419676953 26293.5000
0204 1419679296 26357.7598
0205 1419681640 26334.3359
0206 1419683984 26380.0020
0207 1419686328 26325.7324
0208 1419688671 26358.9980
0209 1419691015 26446.5605
0210 1419693359 26525.9824
0211 1419695703 26545.4043
0212 1419698046 26493.2852
0213 1419700390 26470.1328
0214 1419702734 26461.3047
0215 1419705078 26466.3320
0216 1419707421 26524.1094
0217 1419709765 26553.8848
0218 1419712109 26502.8418
0219 1419714453 26512.0215
0220 1419716796 26529.9805
0221 1419719140 26541.1855
0222 1419721484 26538.9102
0223 1419723828 26572.7051
0224 1419726171 26463.0898
0225 1419728515 26517.8320
0226 1419730859 26421.2168
0227 1419733203 26349.3359
0228 1419735546 26494.6426
0229 1419737890 26465.0938
0230 1419740234 26500.7422
0231 1419742578 26479.4922
0232 1419744921 26491.2422
0233 1419747265 26447.0059
0234 1419749609 26377.4062
0235 1419751953 26414.7520
0236 1419754296 26426.2188
0237 1419756640 26448.3574
0238 1419758984 26395.4395
0239 1419761328 26341.2480
0240 1419763671 26323.3828
0241 1419766015 26451.5371
0242 1419768359 26423.2949
0243 1419770703 26404.8848
0244 1419773046 26348.6758
0245 1419775390 26314.0801
0246 1419777734 26251.6445
0247 1419780078 26297.2207
0248 1419782421 26361.3535
0249 1419784765 26261.7324
0250 1419787109 26251.1172
0251 1419789453 26296.6602
0252 1419791796 26257.7734
0253 1419794140 26170.5117
0254 1419796484 26197.6191
0255 1419798828 26171.6758
0256 1419801171 26180.8926
0257 1419803515 26113.8652
0258 1419805859 26043.1113
0259 1419808203 26021.9688
0260 1419810546 26063.8984
0261 1419812890 26104.4922
0262 1419815234 25949.6562
0263 1419817578 25943.5742
0264 1419819921 25841.6230
0265 1419822265 25829.6582
0266 1419824609 25918.2969
0267 1419826953 25838.7070
0268 1419829296 25791.1855
0269 1419831640 25785.9707
0270 1419833984 25883.2051
0271 1419836328 25800.7754
0272 1419838671 25704.6621
0273 1419841015 25654.6797
0274 1419843359 25789.5215
0275 1419845703 25740.5527
0276 1419848046 25590.4043
0277 1419850390 25571.6641
0278 1419852734 25639.0684
0279 1419855078 25595.2441
0280 1419857421 25478.4414
0281 1419859765 25464.4551
0282 1419862109 25574.2480
0283 1419864453 25519.1602
0284 1419866796 25484.3164
0285 1419869140 25418.5547
0286 1419871484 25430.1953
0287 1419873828 25418.5566
0288 1419876171 25346.0137
0289 1419878515 25399.8887
0290 1419880859 25387.5938
0291 1419883203 25249.4453
0292 1419885546 25235.2109
0293 1419887890 25329.3340
0294 1419890234 25227.2676
0295 1419892578 25217.3340
0296 1419894921 25209.4219
0297 1419897265 25240.6934
0298 1419899609 25165.6113
0299 1419901953 25116.6348
0300 1419904296 25115.5176
0301 1419906640 25140.5957
0302 1419908984 25126.8848
0303 1419911328 25147.9941
0304 1419913671 25023.5898
0305 1419916015 25079.5469
0306 1419918359 25038.2402
0307 1419920703 25013.3242
0308 1419923046 24933.8438
0309 1419925390 25012.4160
0310 1419927734 25052.3574
0311 1419930078 25012.1172
0312 1419932421 24980.1328
0313 1419934765 24968.0391
0314 1419937109 24825.7324
0315 1419939453 24900.6582
0316 1419941796 24963.7852
0317 1419944140 24865.1191
0318 1419946484 24888.2109
0319 1419948828 24904.6504
0320 1419951171 24900.2168
0321 1419953515 24879.2676
0322 1419955859 24939.9473
0323 1419958203 25008.1074
0324 1419960546 25026.5918
0325 1419962890 24906.3301
0326 1419965234 24858.5508
0327 1419967578 24853.6562
0328 1419969921 24774.3066
0329 1419972265 24861.3086
0330 1419974609 24971.3125
0331 1419976953 24936.2012
0332 1419979296 24833.2695
0333 1419981640 24876.6055
0334 1419983984 24895.2480
0335 1419986328 24844.3457
0336 1419988671 24823.1504
0337 1419991015 24916.5547
0338 1419993359 24863.2559
0339 1419995703 24854.1504
0340 1419998046 24900.5488
0341 1420000390 24926.2266
0342 1420002734 24812.8457
0343 1420005078 24884.6836
0344 1420007421 24879.9688
0345 1420009765 24904.3359
0346 1420012109 24886.5156
0347 1420014453 24865.6680
0348 1420016796 24809.4121
0349 1420019140 24973.2500
0350 1420021484 25002.5684
0351 1420023828 24947.4531
0352 1420026171 24911.7715
0353 1420028515 24986.9551
0354 1420030859 24890.5273
0355 1420033203 25024.6973
0356 1420035546 25086.1035
0357 1420037890 24974.6426
0358 1420040234 25065.6172
0359 1420042578 24995.0879
0360 1420044921 25110.0410
0361 1420047265 25128.7422
0362 1420049609 25111.2715
0363 1420051953 25165.4570
0364 1420054296 25202.9336
0365 1420056640 25209.7520
0366 1420058984 25248.6934
0367 1420061328 25121.5332
0368 1420063671 25261.5078
0369 1420066015 25293.6270
0370 1420068359 25305.5078
0371 1420070703 25269.9863
0372 1420073046 25310.1289
0373 1420075390 25352.4512
0374 1420077734 25425.3164
0375 1420080078 25464.3574
0376 1420082421 25445.5254
0377 1420084765 25448.1641
0378 1420087109 25478.7090
0379 1420089453 25479.1680
0380 1420091796 25493.7363
0381 1420094140 25570.1895
0382 1420096484 25591.2832
0383 1420098828 25532.9805
0384 1420101171 25659.0410
0385 1420103515 25676.2539
0386 1420105859 25608.3438
0387 1420108203 25760.6016
0388 1420110546 25838.0703
0389 1420112890 25686.8438
0390 1420115234 25765.9492
0391 1420117578 25861.5898
0392 1420119921 25820.3418
0393 1420122265 25891.9688
0394 1420124609 25940.1367
0395 1420126953 25878.1426
0396 1420129296 26042.6328
0397 1420131640 26205.3555
0398 1420133984 26112.9902
0399 1420136328 26085.0430
0400 1420138671 26045.5059
0401 1420141015 26131.0410
0402 1420143359 26220.9980
0403 1420145703 26156.9785
0404 1420148046 26203.7480
0405 1420150390 26214.5234
0406 1420152734 26400.9785
0407 1420155078 26376.8613
0408 1420157421 26319.5293
0409 1420159765 26321.0078
0410 1420162109 26505.8848
0411 1420164453 26506.5234
0412 1420166796 26481.1719
0413 1420169140 26537.0625
0414 1420171484 26581.2559
0415 1420173828 26590.8047
0416 1420176171 26688.7988
0417 1420178515 26697.3789
0418 1420180859 26816.2109
0419 1420183203 26761.5078
0420 1420185546 26907.0918
0421 1420187890 26804.2578
0422 1420190234 26856.8477
0423 1420192578 26915.8379
0424 1420194921 27034.7207
0425 1420197265 27000.6211
0426 1420199609 27034.1133
0427 1420201953 27005.2891
0428 1420204296 27240.4375
0429 1420206640 27143.0059
0430 1420208984 27148.2852
0431 1420211328 27114.0234
0432 1420213671 27252.6621
0433 1420216015 27248.6250
0434 1420218359 27354.9336
0435 1420220703 27398.1582
0436 1420223046 27356.1719
0437 1420225390 27400.6641
0438 1420227734 27447.5781
0439 1420230078 27604.6543
0440 1420232421 27512.3516
0441 1420234765 27647.0156
0442 1420237109 27659.5449
0443 1420239453 27532.0820
0444 1420241796 27589.7207
0445 1420244140 27682.4492
0446 1420246484 27855.1719
0447 1420248828 27765.7324
0448 1420251171 27821.3438
0449 1420253515 27918.4062
0450 1420255859 27957.6699
0451 1420258203 28022.2344
0452 1420260546 28004.3750
0453 1420262890 28034.6484
0454 1420265234 28030.8535
0455 1420267578 28101.2266
0456 1420269921 28115.1152
0457 1420272265 28229.1777
0458 1420274609 28193.0039
0459 1420276953 28149.1250
0460 1420279296 28182.6406
0461 1420281640 28335.3535
0462 1420283984 28251.0117
0463 1420286328 28308.1094
0464 1420288671 28351.4570
0465 1420291015 28361.2852
0466 1420293359 28368.1641
0467 1420295703 28279.7832
0468 1420298046 28420.1582
0469 1420300390 28480.4746
0470 1420302734 28530.6973
0471 1420305078 28572.5020
0472 1420307421 28553.8242
0473 1420309765 28669.1328
0474 1420312109 28757.3750
0475 1420314453 28647.7207
0476 1420316796 28770.2383
0477 1420319140 28714.5977
0478 1420321484 28805.8574
0479 1420323828 28825.8086
0480 1420326171 28911.0625
0481 1420328515 28890.2246
0482 1420330859 28907.0996
0483 1420333203 28910.0762
0484 1420335546 28838.8066
0485 1420337890 28986.8125
0486 1420340234 29050.3008
0487 1420342578 29085.8359
0488 1420344921 29008.5762
0489 1420347265 29122.5371
0490 1420349609 29002.2324
0491 1420351953 29206.5547
0492 1420354296 29175.7012
0493 1420356640 29194.5508
0494 1420358984 29200.0410
0495 1420361328 29195.6445
0496 1420363671 29228.7891
0497 1420366015 29240.4160
0498 1420368359 29263.5254
0499 1420370703 29268.3516
0500 1420373046 29287.9297
0501 1420375390 29175.7617
0502 1420377734 29236.3496
0503 1420380078 29195.6602
0504 1420382421 29343.5879
0505 1420384765 29337.4766
0506 1420387109 29356.6289
0507 1420389453 29273.3613
0508 1420391796 29370.3535
0509 1420394140 29324.9648
0510 1420396484 29362.8633
0511 1420398828 29531.9160
0512 1420401171 29399.3301
0513 1420403515 29471.9238
0514 1420405859 29535.4688
0515 1420408203 29473.0781
0516 1420410546 29503.5293
0517 1420412890 29440.5137
0518 1420415234 29399.9531
0519 1420417578 29565.9883
0520 1420419921 29510.0195
0521 1420422265 29539.5195
0522 1420424609 29494.1309
0523 1420426953 29493.3906
0524 1420429296 29517.9551
0525 1420431640 29759.9395
0526 1420433984 29549.1816
0527 1420436328 29535.5137
0528 1420438671 29566.3223
0529 1420441015 29556.2031
0530 1420443359 29609.1602
0531 1420445703 29719.8984
0532 1420448046 29689.1270
0533 1420450390 29621.2031
0534 1420452734 29613.8027
0535 1420455078 29535.8418
0536 1420457421 29515.6875
0537 1420459765 29543.8730
0538 1420462109 29390.9043
0539 1420464453 29570.5059
0540 1420466796 29426.5020
0541 1420469140 29365.3047
0542 1420471484 29366.0488
0543 1420473828 29301.9473
0544 1420476171 29264.9102
0545 1420478515 29235.1406
0546 1420480859 29216.2129
0547 1420483203 29099.8008
0548 1420485546 29041.7383
0549 1420487890 29085.0469
0550 1420490234 28933.3340
0551 1420492578 28992.2090
0552 1420494921 28959.7598
0553 1420497265 29025.1953
0554 1420499609 28816.6543
0555 1420501953 28770.1504
0556 1420504296 28965.0781
0557 1420506640 28825.2715
0558 1420508984 28708.4297
0559 1420511328 28737.8652
0560 1420513671 28621.1367
0561 1420516015 28584.7090
0562 1420518359 28475.7715
0563 1420520703 28533.7383
0564 1420523046 28476.8359
0565 1420525390 28518.8887
0566 1420527734 28395.7500
0567 1420530078 28415.6738
0568 1420532421 28346.1172
0569 1420534765 28231.9707
0570 1420537109 28280.6836
0571 1420539453 28427.1855
0572 1420541796 28154.6152
0573 1420544140 28109.1172
0574 1420546484 28105.4023
0575 1420548828 28055.7520
0576 1420551171 28135.8262
0577 1420553515 27936.4141
0578 1420555859 28072.0879
0579 1420558203 27847.8926
0580 1420560546 27892.1348
0581 1420562890 27782.5430
0582 1420565234 27835.3789
0583 1420567578 27844.4766
0584 1420569921 27737.4043
0585 1420572265 27674.5039
0586 1420574609 27548.9062
0587 1420576953 27542.8164
0588 1420579296 27524.7754
0589 1420581640 27480.4395
0590 1420583984 27472.3594
0591 1420586328 27547.0781
0592 1420588671 27452.5879
0593 1420591015 27451.3652
0594 1420593359 27317.9297
0595 1420595703 27305.5117
0596 1420598046 27281.9160
0597 1420600390 27253.2969
0598 1420602734 27192.4863
0599 1420605078 27083.9512
0600 1420607421 27094.4863
0601 1420609765 27126.5020
0602 1420612109 26993.6582
0603 1420614453 26979.8438
0604 1420616796 26908.7305
0605 1420619140 26885.1328
0606 1420621484 26962.7676
0607 1420623828 26796.0000
0608 1420626171 26802.8262
0609 1420628515 26752.1719
0610 1420630859 26737.4180
0611 1420633203 26735.5586
0612 1420635546 26755.6992
0613 1420637890 26660.4023
0614 1420640234 26646.8164
0615 1420642578 26685.3398
0616 1420644921 26627.3340
0617 1420647265 26506.1484
0618 1420649609 26413.8125
0619 1420651953 26489.9277
0620 1420654296 26379.2910
0621 1420656640 26450.7598
0622 1420658984 26453.9258
0623 1420661328 26332.6465
0624 1420663671 26278.9961
0625 1420666015 26262.2578
0626 1420668359 26145.9434
0627 1420670703 26125.8398
0628 1420673046 26078.7500
0629 1420675390 26152.3789
0630 1420677734 26023.1328
0631 1420680078 26131.7871
0632 1420682421 26097.4199
0633 1420684765 26039.3926
0634 1420687109 26046.1152
0635 1420689453 26036.8672
0636 1420691796 25904.7051
0637 1420694140 25895.6230
0638 1420696484 25900.4258
0639 1420698828 25789.7168
0640 1420701171 25755.3125
0641 1420703515 25830.6953
0642 1420705859 25724.4668
0643 1420708203 25786.8105
0644 1420710546 25624.8105
0645 1420712890 25643.0195
0646 1420715234 25587.4766
0647 1420717578 25696.8770
0648 1420719921 25755.4766
0649 1420722265 25643.3906
0650 1420724609 25652.3906
0651 1420726953 25575.1035
0652 1420729296 25523.3223
0653 1420731640 25587.9238
0654 1420733984 25527.1543
0655 1420736328 25514.2266
0656 1420738671 25472.4707
0657 1420741015 25481.4688
0658 1420743359 25485.6582
0659 1420745703 25512.6113
0660 1420748046 25445.4297
0661 1420750390 25439.3906
0662 1420752734 25275.2559
0663 1420755078 25359.1680
0664 1420757421 25395.7402
0665 1420759765 25343.6680
0666 1420762109 25292.1777
0667 1420764453 25317.8203
0668 1420766796 25359.4102
0669 1420769140 25320.2441
0670 1420771484 25251.6777
0671 1420773828 25281.4434
0672 1420776171 25221.5371
0673 1420778515 25198.8203
0674 1420780859 25290.4199
0675 1420783203 25113.8789
0676 1420785546 25116.8652
0677 1420787890 25236.2852
0678 1420790234 25242.8438
0679 1420792578 25198.0156
0680 1420794921 25200.5547
0681 1420797265 25228.2539
0682 1420799609 25185.9883
0683 1420801953 25186.4688
0684 1420804296 25158.3164
0685 1420806640 25091.8047
0686 1420808984 25197.9785
0687 1420811328 25172.0566
0688 1420813671 25213.3945
0689 1420816015 25242.3027
0690 1420818359 25248.2793
0691 1420820703 25299.9160
0692 1420823046 25216.1855
0693 1420825390 25361.5059
0694 1420827734 25288.1914
0695 1420830078 25183.4785
0696 1420832421 25136.4648
0697 1420834765 25278.0938
0698 1420837109 25257.6055
0699 1420839453 25254.9121
0700 1420841796 25326.3223
0701 1420844140 25283.0508
0702 1420846484 25307.0078
0703 1420848828 25389.7109
0704 1420851171 25347.7539
0705 1420853515 25328.3379
0706 1420855859 25358.3418
0707 1420858203 25449.8027
0708 1420860546 25409.5352
0709 1420862890 25437.0879
0710 1420865234 25425.2559
0711 1420867578 25411.3516
0712 1420869921 25556.4062
0713 1420872265 25451.9980
0714 1420874609 25478.0234
0715 1420876953 25625.4336
0716 1420879296 25607.2422
0717 1420881640 25551.1660
0718 1420883984 25604.9180
0719 1420886328 25619.6914
0720 1420888671 25691.9023
0721 1420891015 25712.6895
0722 1420893359 25627.3535
0723 1420895703 25668.3633
0724 1420898046 25682.2285
0725 1420900390 25747.4160
0726 1420902734 25745.8516
0727 1420905078 25748.6250
0728 1420907421 25709.0996
0729 1420909765 25754.5703
0730 1420912109 25877.1934
0731 1420914453 25971.8945
0732 1420916796 25912.1562
0733 1420919140 25966.0938
0734 1420921484 25869.7930
0735 1420923828 26018.6172
0736 1420926171 26094.3672
0737 1420928515 26112.1523
0738 1420930859 26130.7734
0739 1420933203 26187.6406
0740 1420935546 26123.6113
0741 1420937890 26208.7051
0742 1420940234 26116.4473
0743 1420942578 26186.0527
0744 1420944921 26400.5723
0745 1420947265 26400.7559
0746 1420949609 26308.7559
0747 1420951953 26264.8496
0748 1420954296 26475.1250
0749 1420956640 26403.9121
0750 1420958984 26489.8145
0751 1420961328 26582.5859
0752 1420963671 26522.0703
0753 1420966015 26580.9492
0754 1420968359 26620.7559
0755 1420970703 26730.7441
0756 1420973046 26748.9727
0757 1420975390 26722.2207
0758 1420977734 26766.3379
0759 1420980078 26780.0586
0760 1420982421 26802.3906
0761 1420984765 26807.3184
0762 1420987109 26861.9629
0763 1420989453 26952.5820
0764 1420991796 26978.3301
0765 1420994140 27012.2363
0766 1420996484 27121.6836
0767 1420998828 27061.7402
0768 1421001171 27190.4062
0769 1421003515 27146.0117
0770 1421005859 27272.0918
0771 1421008203 27200.0430
0772 1421010546 27287.9980
0773 1421012890 27211.2715
0774 1421015234 27331.5879
0775 1421017578 27338.7148
0776 1421019921 27364.0605
0777 1421022265 27499.8750
0778 1421024609 27506.1406
0779 1421026953 27478.9473
0780 1421029296 27442.6953
0781 1421031640 27502.5645
0782 1421033984 27532.8184
0783 1421036328 27577.8086
0784 1421038671 27694.5527
0785 1421041015 27752.1406
0786 1421043359 27786.1465
0787 1421045703 27792.8066
0788 1421048046 27759.5898
0789 1421050390 27840.2715
0790 1421052734 27866.8516
0791 1421055078 27761.7793
0792 1421057421 27884.0293
0793 1421059765 27863.5488
0794 1421062109 27927.5781
0795 1421064453 28047.1348
0796 1421066796 28006.3496
0797 1421069140 27951.4082
0798 1421071484 28012.3047
0799 1421073828 28101.4375
0800 1421076171 28067.8145
0801 1421078515 28065.3418
0802 1421080859 28112.9395
0803 1421083203 28187.0020
0804 1421085546 28203.5293
0805 1421087890 28122.7910
0806 1421090234 28190.8379
0807 1421092578 28167.3906
0808 1421094921 28259.0078
0809 1421097265 28198.3906
0810 1421099609 28286.7402
0811 1421101953 28318.5723
0812 1421104296 28145.2422
0813 1421106640 28316.0371
0814 1421108984 28404.7188
0815 1421111328 28325.0000
0816 1421113671 28252.3730
0817 1421116015 28319.4336
0818 1421118359 28351.7578
0819 1421120703 28224.6133
0820 1421123046 28247.5703
0821 1421125390 28366.8125
0822 1421127734 28214.3984
0823 1421130078 28188.3555
0824 1421132421 28293.0059
0825 1421134765 28283.6387
0826 1421137109 28326.4004
0827 1421139453 28205.8594
0828 1421141796 28180.2227
0829 1421144140 28310.8984
0830 1421146484 28229.9395
0831 1421148828 28083.6621
0832 1421151171 28120.3418
0833 1421153515 28292.5938
0834 1421155859 28146.0684
0835 1421158203 28075.7715
0836 1421160546 28194.0000
0837 1421162890 28197.5527
0838 1421165234 28148.9961
0839 1421167578 28104.2754
0840 1421169921 28091.1973
0841 1421172265 27995.1680
0842 1421174609 28039.6602
0843 1421176953 27956.2734
0844 1421179296 27918.0410
0845 1421181640 27940.0332
0846 1421183984 27964.0078
0847 1421186328 27833.3027
0848 1421188671 27720.5586
0849 1421191015 27741.5684
0850 1421193359 27718.2812
0851 1421195703 27650.1191
0852 1421198046 27653.7754
0853 1421200390 27672.6211
0854 1421202734 27572.1621
0855 1421205078 27426.1113
0856 1421207421 27461.1758
0857 1421209765 27356.3105
0858 1421212109 27256.3320
0859 1421214453 27298.9512
0860 1421216796 27253.0527
0861 1421219140 27151.9766
0862 1421221484 27105.4746
0863 1421223828 27038.4199
0864 1421226171 26974.6309
0865 1421228515 26762.8066
0866 1421230859 26955.6250
0867 1421233203 26803.2441
0868 1421235546 26597.1035
0869 1421237890 26548.5156
0870 1421240234 26490.7422
0871 1421242578 26433.2578
0872 1421244921 26356.9961
0873 1421247265 26178.2559
0874 1421249609 26187.8828
0875 1421251953 26202.1406
0876 1421254296 26129.7480
0877 1421256640 26029.4805
0878 1421258984 25897.8281
0879 1421261328 25829.5352
0880 1421263671 25703.4082
0881 1421266015 25598.3496
0882 1421268359 25497.9980
0883 1421270703 25437.3906
0884 1421273046 25242.9629
0885 1421275390 25175.4844
0886 1421277734 25055.5605
0887 1421280078 24938.5234
0888 1421282421 24950.2363
0889 1421284765 24900.5684
0890 1421287109 24709.9688
0891 1421289453 24650.4609
0892 1421291796 24477.0547
0893 1421294140 24416.9336
0894 1421296484 24251.5410
0895 1421298828 24067.9453
0896 1421301171 24014.1211
0897 1421303515 23928.9805
0898 1421305859 23773.2734
0899 1421308203 23642.7539
0900 1421310546 23455.5840
0901 1421312890 23359.6348
0902 1421315234 23298.5684
0903 1421317578 23249.6992
0904 1421319921 23010.6309
0905 1421322265 22905.4219
0906 1421324609 22755.7305
0907 1421326953 22689.6387
0908 1421329296 22481.5488
0909 1421331640 22298.4375
0910 1421333984 22193.8184
0911 1421336328 22098.3984
0912 1421338671 21980.8125
0913 1421341015 21873.0879
0914 1421343359 21717.9590
0915 1421345703 21572.5781
0916 1421348046 21511.7754
0917 1421350390 21297.1328
0918 1421352734 21133.1895
0919 1421355078 20975.8340
0920 1421357421 20895.0664
0921 1421359765 20666.9023
0922 1421362109 20600.0215
0923 1421364453 20447.4609
0924 1421366796 20318.7598
0925 1421369140 20170.1836
0926 1421371484 19968.8809
0927 1421373828 19882.5195
0928 1421376171 19727.2617
0929 1421378515 19566.0449
0930 1421380859 19471.0391
0931 1421383203 19332.6855
0932 1421385546 19123.7695
0933 1421387890 19030.5176
0934 1421390234 18799.5332
0935 1421392578 18697.4531
0936 1421394921 18490.8770
0937 1421397265 18346.9668
0938 1421399609 18210.6035
0939 1421401953 17989.9512
0940 1421404296 17846.6309
0941 1421406640 17846.5234
0942 1421408984 17641.7461
0943 1421411328 17505.1523
0944 1421413671 17385.6230
0945 1421416015 17120.3047
0946 1421418359 17028.6914
0947 1421420703 16844.1602
0948 1421423046 16765.3945
0949 1421425390 16657.5039
0950 1421427734 16461.3164
0951 1421430078 16366.9541
0952 1421432421 16189.7402
0953 1421434765 16088.8047
0954 1421437109 15838.1270
0955 1421439453 15736.4844
0956 1421441796 15590.4658
0957 1421444140 15413.9199
0958 1421446484 15276.2354
0959 1421448828 15152.4209
0960 1421451171 14963.2041
0961 1421453515 14847.1777
0962 1421455859 14687.9639
0963 1421458203 14609.9336
0964 1421460546 14425.9316
0965 1421462890 14256.1064
0966 1421465234 14138.3242
0967 1421467578 13977.8379
0968 1421469921 13903.6533
0969 1421472265 13738.5195
0970 1421474609 13640.9658
0971 1421476953 13499.9248
0972 1421479296 13343.6162
0973 1421481640 13194.7510
0974 1421483984 13052.6084
0975 1421486328 13017.5762
0976 1421488671 12803.9658
0977 1421491015 12729.9531
0978 1421493359 12570.9229
0979 1421495703 12454.6084
0980 1421498046 12334.0459
0981 1421500390 12218.7705
0982 1421502734 12082.9082
0983 1421505078 11962.1084
0984 1421507421 11861.7871
0985 1421509765 11748.2002
0986 1421512109 11638.9688
0987 1421514453 11550.3730
0988 1421516796 11414.0449
0989 1421519140 11285.1455
0990 1421521484 11195.1729
0991 1421523828 11099.9307
0992 1421526171 10932.8818
0993 1421528515 10847.5879
0994 1421530859 10750.1328
0995 1421533203 10686.1816
0996 1421535546 10573.7598
0997 1421537890 10462.6387
0998 1421540234 10392.7148
0999 1421542578 10299.9443
1000 1421544921 10240.9668
1001 1421547265 10139.5645
1002 1421549609 10032.1514
1003 1421551953 9931.6758
1004 1421554296 9837.6865
1005 1421556640 9721.8779
1006 1421558984 9694.8750
1007 1421561328 9607.7627
1008 1421563671 9559.6719
1009 1421566015 9451.6865
1010 1421568359 9387.9639
1011 1421570703 9329.2227
1012 1421573046 9291.5596
1013 1421575390 9207.4102
1014 1421577734 9114.6133
1015 1421580078 9080.0664
1016 1421582421 8991.7480
1017 1421584765 8941.2471
1018 1421587109 8858.2520
1019 1421589453 8836.9082
1020 1421591796 8753.9873
1021 1421594140 8734.8291
1022 1421596484 8673.2344
1023 1421598828 8622.1973
