# File: 20-10-09T224905.ast
# NOTEA     = Foam Pyramid Horn
# NOTEB     = Spectral Integration
# OBSERVER  = Schultz
# DEVICE    = rtl=0,bias=0
# DATADIR   = ../data/
# SITE      = Foam Pyramid Horn
# CITY      = Chicago
# REGION    = Illinois
# COUNTRY   = US
# TELTYPE   = Foam Pyramid Horn
# FRAME     = TOPO
# GAIN1     = 49.6
# GAIN2     = 49.6
# GAIN3     = 49.6
# GAIN4     = 0.0
# Count     = 490000
# CenterFreq= 1420400000.0
# Bandwidth = 2400000.0
# Duration  = 305.837021
# DeltaX    = 5859.375
# TSYS      = 200.0
# TRX       = 100.0
# TRMS      = 2.0
# TINT      = 1.0
# KPERC     = 100.0
# GAINFACT  = 1.0
# BUNIT     = Counts
# NCHAN     = 1024
# NSPEC     = 1
# NTIME     = 0
# NSAMPLES  = 0
# EPEAK     = 4.10875183718
# ERMS      = 0.995973393526
# EMJD      = 58568.808999981004 
# REFCHAN   = 512.0
# REFSAMPL  = 256.0
# NAVE      = 700
# NMEDIAN   = 1024
# Fft_rate  = 5000
# UTC       = 2020-10-09 22:49:05.446859
# SECONDS   =       0.0000000000 
# LST       = 18:14:35.910
# AZ        = 180.0
# EL        = 40.0
# TELLON    = -87:37:48.000
# TELLAT    = +41:52:01.000
# RA        = 18:12:21.740
# DEC       = -08:09:59.100
# GALLON    = 21:10:34.60
# GALLAT    = +04:51:32.60
# ALT_SUN   = +04:35:27.5
# AZ_SUN    = +256:53:35.8
# ETAA      = 0.8
# ETAB      = 0.99
# POLANGLE  = 0.0
# TELSIZEAM = 1.0
# TELSIZEBM = 1.0
# AST_VERS  = 05.01
0000 1419201171 10330.6826
0001 1419203515 10296.5547
0002 1419205859 10247.7178
0003 1419208203 10198.0020
0004 1419210546 10149.1953
0005 1419212890 10090.6260
0006 1419215234 10066.7744
0007 1419217578 10015.7051
0008 1419219921 9957.6416
0009 1419222265 9918.6963
0010 1419224609 9924.4697
0011 1419226953 9853.7148
0012 1419229296 9821.7764
0013 1419231640 9803.4307
0014 1419233984 9765.3770
0015 1419236328 9750.9893
0016 1419238671 9718.8408
0017 1419241015 9699.2295
0018 1419243359 9693.9531
0019 1419245703 9697.2637
0020 1419248046 9662.5137
0021 1419250390 9652.0801
0022 1419252734 9629.3623
0023 1419255078 9633.5479
0024 1419257421 9622.7988
0025 1419259765 9632.8037
0026 1419262109 9661.4658
0027 1419264453 9671.9531
0028 1419266796 9643.4727
0029 1419269140 9640.0498
0030 1419271484 9705.5557
0031 1419273828 9695.3701
0032 1419276171 9747.5195
0033 1419278515 9737.0898
0034 1419280859 9770.3896
0035 1419283203 9796.3164
0036 1419285546 9817.8105
0037 1419287890 9906.2109
0038 1419290234 9945.7959
0039 1419292578 9999.4336
0040 1419294921 10069.8486
0041 1419297265 10120.3496
0042 1419299609 10184.0771
0043 1419301953 10290.8643
0044 1419304296 10338.9375
0045 1419306640 10459.1816
0046 1419308984 10505.0010
0047 1419311328 10634.5059
0048 1419313671 10739.9277
0049 1419316015 10825.3682
0050 1419318359 10896.5898
0051 1419320703 11029.2910
0052 1419323046 11158.6113
0053 1419325390 11251.2910
0054 1419327734 11383.4775
0055 1419330078 11538.3330
0056 1419332421 11649.8193
0057 1419334765 11753.4795
0058 1419337109 11928.4795
0059 1419339453 12074.8115
0060 1419341796 12204.5947
0061 1419344140 12342.3955
0062 1419346484 12548.0791
0063 1419348828 12713.4863
0064 1419351171 12814.2568
0065 1419353515 12995.4766
0066 1419355859 13151.7539
0067 1419358203 13313.9141
0068 1419360546 13502.0215
0069 1419362890 13729.8174
0070 1419365234 13816.9307
0071 1419367578 14030.1846
0072 1419369921 14171.8721
0073 1419372265 14344.8301
0074 1419374609 14574.6152
0075 1419376953 14740.2979
0076 1419379296 14868.0566
0077 1419381640 15086.4814
0078 1419383984 15242.7949
0079 1419386328 15390.5488
0080 1419388671 15749.4004
0081 1419391015 16058.9297
0082 1419393359 16076.3135
0083 1419395703 16220.6260
0084 1419398046 16347.6592
0085 1419400390 16551.8828
0086 1419402734 16730.4609
0087 1419405078 16921.5527
0088 1419407421 17170.8574
0089 1419409765 17332.0000
0090 1419412109 17486.2363
0091 1419414453 17680.3516
0092 1419416796 17852.6582
0093 1419419140 18049.0684
0094 1419421484 18243.1875
0095 1419423828 18404.0176
0096 1419426171 18630.9590
0097 1419428515 18785.5352
0098 1419430859 19011.8594
0099 1419433203 19247.8809
0100 1419435546 19407.9355
0101 1419437890 19534.2773
0102 1419440234 19750.2676
0103 1419442578 19955.3633
0104 1419444921 20115.9375
0105 1419447265 20257.3809
0106 1419449609 20605.7227
0107 1419451953 20702.0938
0108 1419454296 20867.5703
0109 1419456640 21132.1113
0110 1419458984 21286.1055
0111 1419461328 21505.8711
0112 1419463671 21641.5098
0113 1419466015 21817.8398
0114 1419468359 21970.5586
0115 1419470703 22163.0449
0116 1419473046 22323.0000
0117 1419475390 22464.5586
0118 1419477734 22669.2500
0119 1419480078 22949.4102
0120 1419482421 23065.5020
0121 1419484765 23190.7754
0122 1419487109 23384.4453
0123 1419489453 23549.0977
0124 1419491796 23730.9785
0125 1419494140 23857.8223
0126 1419496484 24022.6445
0127 1419498828 24217.3555
0128 1419501171 24351.3770
0129 1419503515 24492.6289
0130 1419505859 24662.2598
0131 1419508203 24813.8047
0132 1419510546 24983.5820
0133 1419512890 25146.6367
0134 1419515234 25335.4004
0135 1419517578 25438.4902
0136 1419519921 25677.1445
0137 1419522265 25740.2852
0138 1419524609 25914.4238
0139 1419526953 26076.8066
0140 1419529296 26216.7539
0141 1419531640 26394.1875
0142 1419533984 26471.5254
0143 1419536328 26627.2188
0144 1419538671 26798.0352
0145 1419541015 26926.3848
0146 1419543359 27012.2832
0147 1419545703 27262.7988
0148 1419548046 27365.1602
0149 1419550390 27524.6035
0150 1419552734 27555.5039
0151 1419555078 27718.0723
0152 1419557421 27807.0215
0153 1419559765 27945.9043
0154 1419562109 28145.7734
0155 1419564453 28295.3672
0156 1419566796 28355.5059
0157 1419569140 28514.3887
0158 1419571484 28535.9277
0159 1419573828 28715.4180
0160 1419576171 28805.5645
0161 1419578515 28791.6992
0162 1419580859 28983.6191
0163 1419583203 29150.9707
0164 1419585546 29241.8008
0165 1419587890 29374.5098
0166 1419590234 29354.4297
0167 1419592578 29475.9043
0168 1419594921 29633.5996
0169 1419597265 29612.2305
0170 1419599609 29748.5234
0171 1419601953 29805.4277
0172 1419604296 29812.5645
0173 1419606640 30054.3691
0174 1419608984 30136.7988
0175 1419611328 30197.9180
0176 1419613671 30251.0703
0177 1419616015 30303.4141
0178 1419618359 30272.1562
0179 1419620703 30471.7773
0180 1419623046 30508.1719
0181 1419625390 30524.5117
0182 1419627734 30731.4492
0183 1419630078 30723.3047
0184 1419632421 30788.4512
0185 1419634765 30887.8125
0186 1419637109 30888.1367
0187 1419639453 31019.5195
0188 1419641796 31012.3711
0189 1419644140 31005.3594
0190 1419646484 31197.7695
0191 1419648828 31125.8887
0192 1419651171 31174.8867
0193 1419653515 31352.4160
0194 1419655859 31292.2051
0195 1419658203 31307.7168
0196 1419660546 31332.8828
0197 1419662890 31418.4629
0198 1419665234 31454.3555
0199 1419667578 31509.3613
0200 1419669921 31626.6719
0201 1419672265 31688.6270
0202 1419674609 31601.4629
0203 1419676953 31609.0625
0204 1419679296 31710.5059
0205 1419681640 31792.6562
0206 1419683984 31788.4473
0207 1419686328 31799.5117
0208 1419688671 31858.7676
0209 1419691015 31838.1191
0210 1419693359 31797.8652
0211 1419695703 31768.5156
0212 1419698046 31919.6602
0213 1419700390 31907.9961
0214 1419702734 31898.0527
0215 1419705078 31891.7246
0216 1419707421 31921.9629
0217 1419709765 31934.3398
0218 1419712109 31996.4238
0219 1419714453 32034.5742
0220 1419716796 31992.7461
0221 1419719140 31983.8047
0222 1419721484 32032.2266
0223 1419723828 32038.1035
0224 1419726171 31958.4590
0225 1419728515 31990.0469
0226 1419730859 32093.8145
0227 1419733203 32001.5664
0228 1419735546 31993.3848
0229 1419737890 32033.2910
0230 1419740234 31916.5117
0231 1419742578 31889.9590
0232 1419744921 31975.6934
0233 1419747265 31859.4609
0234 1419749609 31827.5234
0235 1419751953 31967.7305
0236 1419754296 31992.7383
0237 1419756640 31922.7695
0238 1419758984 31812.8652
0239 1419761328 31881.3301
0240 1419763671 31900.4492
0241 1419766015 31900.0449
0242 1419768359 31878.6953
0243 1419770703 31855.9238
0244 1419773046 31926.4844
0245 1419775390 31831.2793
0246 1419777734 31960.3164
0247 1419780078 31894.1191
0248 1419782421 31851.7500
0249 1419784765 31827.4414
0250 1419787109 31747.1719
0251 1419789453 31821.1680
0252 1419791796 31837.1758
0253 1419794140 31895.4238
0254 1419796484 31713.4863
0255 1419798828 31704.1562
0256 1419801171 31738.8340
0257 1419803515 31792.9590
0258 1419805859 31681.2773
0259 1419808203 31811.1777
0260 1419810546 31762.2422
0261 1419812890 31756.3301
0262 1419815234 31621.5020
0263 1419817578 31757.8984
0264 1419819921 31684.7402
0265 1419822265 31669.4062
0266 1419824609 31658.1230
0267 1419826953 31632.0879
0268 1419829296 31545.8613
0269 1419831640 31671.7461
0270 1419833984 31669.1484
0271 1419836328 31547.5742
0272 1419838671 31628.5391
0273 1419841015 31591.6621
0274 1419843359 31572.0977
0275 1419845703 31536.3613
0276 1419848046 31470.7734
0277 1419850390 31552.2188
0278 1419852734 31475.3965
0279 1419855078 31375.4336
0280 1419857421 31513.1953
0281 1419859765 31592.1934
0282 1419862109 31525.7871
0283 1419864453 31547.8809
0284 1419866796 31559.1270
0285 1419869140 31436.5293
0286 1419871484 31430.7656
0287 1419873828 31385.1953
0288 1419876171 31351.9785
0289 1419878515 31351.5703
0290 1419880859 31379.3418
0291 1419883203 31358.3750
0292 1419885546 31370.6680
0293 1419887890 31266.4824
0294 1419890234 31207.1777
0295 1419892578 31253.3809
0296 1419894921 31301.0215
0297 1419897265 31187.9160
0298 1419899609 31165.6191
0299 1419901953 31219.5996
0300 1419904296 31198.6758
0301 1419906640 31089.8398
0302 1419908984 31144.2559
0303 1419911328 31181.5566
0304 1419913671 31130.2402
0305 1419916015 31123.0156
0306 1419918359 31095.1465
0307 1419920703 30951.6875
0308 1419923046 31112.0430
0309 1419925390 30886.4395
0310 1419927734 30953.1660
0311 1419930078 30961.0762
0312 1419932421 30891.7344
0313 1419934765 30939.0449
0314 1419937109 30941.7188
0315 1419939453 31062.4512
0316 1419941796 31087.7676
0317 1419944140 30896.5234
0318 1419946484 30964.3828
0319 1419948828 30888.8613
0320 1419951171 31017.0059
0321 1419953515 30876.9336
0322 1419955859 30986.5000
0323 1419958203 30946.4316
0324 1419960546 30868.5195
0325 1419962890 30839.2734
0326 1419965234 30938.3652
0327 1419967578 30967.8672
0328 1419969921 30982.6133
0329 1419972265 30976.3379
0330 1419974609 30982.4844
0331 1419976953 31007.9414
0332 1419979296 30983.1406
0333 1419981640 30930.3613
0334 1419983984 30942.6953
0335 1419986328 31003.8223
0336 1419988671 30913.5918
0337 1419991015 30988.0605
0338 1419993359 31062.1230
0339 1419995703 31042.7559
0340 1419998046 31101.0098
0341 1420000390 31037.4902
0342 1420002734 30956.6992
0343 1420005078 30985.9609
0344 1420007421 31037.8594
0345 1420009765 31016.1406
0346 1420012109 31136.4355
0347 1420014453 31218.2324
0348 1420016796 31200.2773
0349 1420019140 31123.1562
0350 1420021484 31181.1855
0351 1420023828 31152.0781
0352 1420026171 31117.7012
0353 1420028515 31280.9805
0354 1420030859 31327.8887
0355 1420033203 31367.8848
0356 1420035546 31406.2246
0357 1420037890 31408.0215
0358 1420040234 31493.8887
0359 1420042578 31501.1777
0360 1420044921 31471.5312
0361 1420047265 31438.2832
0362 1420049609 31523.8672
0363 1420051953 31716.6992
0364 1420054296 31655.6777
0365 1420056640 31674.1777
0366 1420058984 31769.7324
0367 1420061328 31751.5977
0368 1420063671 31942.3828
0369 1420066015 31800.3789
0370 1420068359 32004.6270
0371 1420070703 32021.7695
0372 1420073046 31944.8359
0373 1420075390 31999.4316
0374 1420077734 32031.1523
0375 1420080078 32162.9434
0376 1420082421 32211.2031
0377 1420084765 32179.0488
0378 1420087109 32439.5566
0379 1420089453 32294.3887
0380 1420091796 32422.8086
0381 1420094140 32389.4766
0382 1420096484 32495.7637
0383 1420098828 32526.5781
0384 1420101171 32624.8242
0385 1420103515 32667.4316
0386 1420105859 32681.7617
0387 1420108203 32706.5020
0388 1420110546 32772.0117
0389 1420112890 32750.1914
0390 1420115234 32879.7266
0391 1420117578 32901.3516
0392 1420119921 33094.8125
0393 1420122265 33145.1562
0394 1420124609 33064.6875
0395 1420126953 33208.0469
0396 1420129296 33220.6328
0397 1420131640 33286.4961
0398 1420133984 33468.4766
0399 1420136328 33392.6289
0400 1420138671 33521.1328
0401 1420141015 33535.5117
0402 1420143359 33634.2422
0403 1420145703 33557.0938
0404 1420148046 33669.0117
0405 1420150390 33912.4258
0406 1420152734 33867.0156
0407 1420155078 33920.3828
0408 1420157421 34039.6094
0409 1420159765 33996.0547
0410 1420162109 34131.6602
0411 1420164453 34158.2031
0412 1420166796 34177.2656
0413 1420169140 34268.1602
0414 1420171484 34332.5586
0415 1420173828 34401.3438
0416 1420176171 34560.7773
0417 1420178515 34418.0703
0418 1420180859 34466.1758
0419 1420183203 34532.2656
0420 1420185546 34593.7578
0421 1420187890 34714.2930
0422 1420190234 34777.6406
0423 1420192578 34932.2500
0424 1420194921 34970.3125
0425 1420197265 35097.6211
0426 1420199609 35138.8047
0427 1420201953 35229.6445
0428 1420204296 35486.6094
0429 1420206640 35449.4844
0430 1420208984 35490.6953
0431 1420211328 35544.4180
0432 1420213671 35659.7305
0433 1420216015 35746.6836
0434 1420218359 36027.1484
0435 1420220703 35975.4961
0436 1420223046 36122.2188
0437 1420225390 36251.6055
0438 1420227734 36441.3633
0439 1420230078 36562.9062
0440 1420232421 36697.8086
0441 1420234765 36731.1523
0442 1420237109 36942.9414
0443 1420239453 37040.4297
0444 1420241796 37102.5234
0445 1420244140 37364.8867
0446 1420246484 37469.7422
0447 1420248828 37643.0195
0448 1420251171 37758.0781
0449 1420253515 37832.5469
0450 1420255859 37946.2930
0451 1420258203 38011.5586
0452 1420260546 38184.7383
0453 1420262890 38184.2578
0454 1420265234 38496.0664
0455 1420267578 38567.3242
0456 1420269921 38661.4609
0457 1420272265 38691.4414
0458 1420274609 38661.9023
0459 1420276953 39053.2500
0460 1420279296 39023.1250
0461 1420281640 39160.4102
0462 1420283984 39207.4414
0463 1420286328 39339.5352
0464 1420288671 39420.8867
0465 1420291015 39603.9609
0466 1420293359 39707.4180
0467 1420295703 39595.7305
0468 1420298046 39686.8906
0469 1420300390 39716.5742
0470 1420302734 39917.3906
0471 1420305078 39738.7109
0472 1420307421 39973.1094
0473 1420309765 40074.3398
0474 1420312109 40038.0117
0475 1420314453 40386.3125
0476 1420316796 40496.7031
0477 1420319140 40681.5898
0478 1420321484 40932.4922
0479 1420323828 41009.6250
0480 1420326171 41352.6445
0481 1420328515 41273.8359
0482 1420330859 41434.8789
0483 1420333203 41600.8281
0484 1420335546 41498.9102
0485 1420337890 41430.4453
0486 1420340234 41318.6289
0487 1420342578 41188.1211
0488 1420344921 40861.7852
0489 1420347265 40738.9375
0490 1420349609 40385.7500
0491 1420351953 40022.9141
0492 1420354296 39770.9219
0493 1420356640 39393.7148
0494 1420358984 39040.6172
0495 1420361328 38810.6445
0496 1420363671 38623.0391
0497 1420366015 38289.2461
0498 1420368359 38033.9805
0499 1420370703 37769.0117
0500 1420373046 37619.4336
0501 1420375390 37410.1719
0502 1420377734 37287.4570
0503 1420380078 37099.3438
0504 1420382421 37051.1836
0505 1420384765 36860.4766
0506 1420387109 36832.2891
0507 1420389453 36703.8242
0508 1420391796 36618.6953
0509 1420394140 36536.5273
0510 1420396484 36541.1172
0511 1420398828 36488.8477
0512 1420401171 36376.1094
0513 1420403515 36283.0352
0514 1420405859 36413.4531
0515 1420408203 36240.9453
0516 1420410546 36286.0742
0517 1420412890 36391.3008
0518 1420415234 36245.6250
0519 1420417578 36142.1484
0520 1420419921 36252.3047
0521 1420422265 36270.0234
0522 1420424609 36238.2422
0523 1420426953 36061.5781
0524 1420429296 36026.7031
0525 1420431640 35994.5273
0526 1420433984 36142.9023
0527 1420436328 36095.7422
0528 1420438671 36053.3320
0529 1420441015 35988.9219
0530 1420443359 36036.3281
0531 1420445703 36043.5234
0532 1420448046 35815.1133
0533 1420450390 35856.1055
0534 1420452734 35980.9805
0535 1420455078 35948.5000
0536 1420457421 35899.2578
0537 1420459765 35852.0430
0538 1420462109 35760.8164
0539 1420464453 35784.0820
0540 1420466796 35841.4141
0541 1420469140 35823.7266
0542 1420471484 35737.3438
0543 1420473828 35611.7227
0544 1420476171 35729.2812
0545 1420478515 35666.4727
0546 1420480859 35629.6172
0547 1420483203 35718.5039
0548 1420485546 35556.5195
0549 1420487890 35582.8398
0550 1420490234 35777.3516
0551 1420492578 35702.4180
0552 1420494921 35589.6445
0553 1420497265 35469.5547
0554 1420499609 35493.6250
0555 1420501953 35516.8359
0556 1420504296 35435.3047
0557 1420506640 35456.5938
0558 1420508984 35450.3477
0559 1420511328 35454.6055
0560 1420513671 35197.3945
0561 1420516015 35387.7734
0562 1420518359 35104.9375
0563 1420520703 35165.8516
0564 1420523046 35038.9727
0565 1420525390 35055.4375
0566 1420527734 35096.4414
0567 1420530078 34942.7227
0568 1420532421 34766.0938
0569 1420534765 34891.7969
0570 1420537109 34727.7539
0571 1420539453 34739.7500
0572 1420541796 34715.4922
0573 1420544140 34602.8711
0574 1420546484 34464.3750
0575 1420548828 34454.8164
0576 1420551171 34435.8359
0577 1420553515 34321.3867
0578 1420555859 34242.5117
0579 1420558203 34215.6328
0580 1420560546 34216.1094
0581 1420562890 34042.3789
0582 1420565234 34010.3906
0583 1420567578 34014.3359
0584 1420569921 33949.5039
0585 1420572265 33821.1016
0586 1420574609 33781.5234
0587 1420576953 33745.2852
0588 1420579296 33760.0938
0589 1420581640 33631.2734
0590 1420583984 33606.4688
0591 1420586328 33588.8828
0592 1420588671 33383.0391
0593 1420591015 33399.9453
0594 1420593359 33308.0469
0595 1420595703 33262.9922
0596 1420598046 33368.8477
0597 1420600390 33337.9648
0598 1420602734 33257.9336
0599 1420605078 33054.5664
0600 1420607421 33100.4375
0601 1420609765 33107.3984
0602 1420612109 32982.3789
0603 1420614453 32807.9883
0604 1420616796 32855.6094
0605 1420619140 32904.8438
0606 1420621484 32679.3242
0607 1420623828 32681.7578
0608 1420626171 32697.0156
0609 1420628515 32588.8535
0610 1420630859 32576.7422
0611 1420633203 32435.0371
0612 1420635546 32428.6250
0613 1420637890 32506.1289
0614 1420640234 32402.1621
0615 1420642578 32396.9023
0616 1420644921 32214.0000
0617 1420647265 32129.8867
0618 1420649609 32190.3672
0619 1420651953 32076.2383
0620 1420654296 32064.5840
0621 1420656640 32035.2617
0622 1420658984 32044.9961
0623 1420661328 31867.6133
0624 1420663671 31988.0859
0625 1420666015 31883.2754
0626 1420668359 31855.2793
0627 1420670703 31728.1836
0628 1420673046 31748.8457
0629 1420675390 31688.8984
0630 1420677734 31504.4824
0631 1420680078 31703.7070
0632 1420682421 31778.1211
0633 1420684765 31464.4824
0634 1420687109 31453.9746
0635 1420689453 31486.1953
0636 1420691796 31465.4727
0637 1420694140 31342.1543
0638 1420696484 31273.9238
0639 1420698828 31244.8574
0640 1420701171 31249.3691
0641 1420703515 31256.5527
0642 1420705859 31139.3672
0643 1420708203 31239.0020
0644 1420710546 31194.1016
0645 1420712890 31071.6504
0646 1420715234 31084.3242
0647 1420717578 31074.8809
0648 1420719921 31092.0039
0649 1420722265 30999.3340
0650 1420724609 30969.8711
0651 1420726953 30938.9941
0652 1420729296 30931.9121
0653 1420731640 30937.0742
0654 1420733984 30828.5781
0655 1420736328 30758.8945
0656 1420738671 30828.7832
0657 1420741015 30771.6094
0658 1420743359 30753.9473
0659 1420745703 30828.8809
0660 1420748046 30890.8223
0661 1420750390 30779.2773
0662 1420752734 30710.7344
0663 1420755078 30575.1113
0664 1420757421 30658.9199
0665 1420759765 30564.9316
0666 1420762109 30593.2695
0667 1420764453 30675.0195
0668 1420766796 30549.6250
0669 1420769140 30470.6035
0670 1420771484 30571.0410
0671 1420773828 30551.4863
0672 1420776171 30582.8945
0673 1420778515 30535.3164
0674 1420780859 30509.4453
0675 1420783203 30543.7344
0676 1420785546 30589.3242
0677 1420787890 30542.7480
0678 1420790234 30518.0371
0679 1420792578 30506.1934
0680 1420794921 30533.1504
0681 1420797265 30616.1992
0682 1420799609 30510.2891
0683 1420801953 30532.8125
0684 1420804296 30529.1152
0685 1420806640 30503.2500
0686 1420808984 30522.9004
0687 1420811328 30511.2324
0688 1420813671 30571.8516
0689 1420816015 30487.6777
0690 1420818359 30478.7266
0691 1420820703 30472.7656
0692 1420823046 30592.9668
0693 1420825390 30533.1016
0694 1420827734 30497.1582
0695 1420830078 30499.3691
0696 1420832421 30502.3281
0697 1420834765 30574.7930
0698 1420837109 30602.1484
0699 1420839453 30623.3281
0700 1420841796 30559.6113
0701 1420844140 30530.2617
0702 1420846484 30491.3438
0703 1420848828 30563.2031
0704 1420851171 30708.2363
0705 1420853515 30660.7461
0706 1420855859 30754.6270
0707 1420858203 30651.4688
0708 1420860546 30657.0176
0709 1420862890 30754.8203
0710 1420865234 30724.5527
0711 1420867578 30749.4707
0712 1420869921 30768.9473
0713 1420872265 30801.3770
0714 1420874609 30861.8398
0715 1420876953 30922.1543
0716 1420879296 30833.8711
0717 1420881640 30941.7246
0718 1420883984 30949.5234
0719 1420886328 30918.4395
0720 1420888671 30953.4082
0721 1420891015 31079.4453
0722 1420893359 31097.5508
0723 1420895703 31126.7793
0724 1420898046 31143.0781
0725 1420900390 31090.9277
0726 1420902734 31208.9727
0727 1420905078 31154.8672
0728 1420907421 31358.8105
0729 1420909765 31328.1797
0730 1420912109 31288.0410
0731 1420914453 31349.5059
0732 1420916796 31452.3633
0733 1420919140 31465.6055
0734 1420921484 31504.0625
0735 1420923828 31508.1367
0736 1420926171 31489.1836
0737 1420928515 31500.9473
0738 1420930859 31593.0898
0739 1420933203 31656.3633
0740 1420935546 31783.9551
0741 1420937890 31706.1309
0742 1420940234 31777.1934
0743 1420942578 31756.2168
0744 1420944921 31625.2793
0745 1420947265 31808.4395
0746 1420949609 31827.1836
0747 1420951953 32077.7266
0748 1420954296 32034.6504
0749 1420956640 32120.7637
0750 1420958984 32028.2949
0751 1420961328 32127.7930
0752 1420963671 32140.2812
0753 1420966015 32170.3711
0754 1420968359 32237.2168
0755 1420970703 32252.3438
0756 1420973046 32299.1016
0757 1420975390 32117.8203
0758 1420977734 32423.0996
0759 1420980078 32509.4551
0760 1420982421 32409.1816
0761 1420984765 32612.5625
0762 1420987109 32451.0879
0763 1420989453 32552.8320
0764 1420991796 32705.4648
0765 1420994140 32734.6719
0766 1420996484 32772.0039
0767 1420998828 32762.8613
0768 1421001171 32907.2227
0769 1421003515 32918.9844
0770 1421005859 32949.8203
0771 1421008203 32911.4531
0772 1421010546 32982.2539
0773 1421012890 33034.4844
0774 1421015234 33145.7031
0775 1421017578 33100.3828
0776 1421019921 33152.1562
0777 1421022265 33131.1172
0778 1421024609 33265.1406
0779 1421026953 33230.3164
0780 1421029296 33282.8359
0781 1421031640 33353.1523
0782 1421033984 33424.4570
0783 1421036328 33489.5117
0784 1421038671 33416.9180
0785 1421041015 33479.8281
0786 1421043359 33640.6562
0787 1421045703 33673.8672
0788 1421048046 33745.2383
0789 1421050390 33711.2266
0790 1421052734 33601.3828
0791 1421055078 33685.2930
0792 1421057421 33728.6172
0793 1421059765 33699.4531
0794 1421062109 33717.2734
0795 1421064453 33874.2969
0796 1421066796 33913.5273
0797 1421069140 33900.8438
0798 1421071484 33950.2305
0799 1421073828 33966.3438
0800 1421076171 33918.1641
0801 1421078515 33865.3828
0802 1421080859 34051.4180
0803 1421083203 33935.7305
0804 1421085546 34107.1094
0805 1421087890 34096.6445
0806 1421090234 34042.8906
0807 1421092578 34141.0977
0808 1421094921 34106.9883
0809 1421097265 34239.6602
0810 1421099609 34167.8789
0811 1421101953 34068.8008
0812 1421104296 34250.6172
0813 1421106640 34312.0977
0814 1421108984 34219.7461
0815 1421111328 34209.5664
0816 1421113671 34222.4258
0817 1421116015 34211.6328
0818 1421118359 34244.8164
0819 1421120703 34353.9922
0820 1421123046 34129.4805
0821 1421125390 34288.4688
0822 1421127734 34265.1172
0823 1421130078 34233.1133
0824 1421132421 34153.0078
0825 1421134765 34311.0898
0826 1421137109 34188.2500
0827 1421139453 34210.8359
0828 1421141796 34149.9414
0829 1421144140 34074.6133
0830 1421146484 34089.5703
0831 1421148828 34156.3047
0832 1421151171 34126.0703
0833 1421153515 34150.7578
0834 1421155859 34051.6367
0835 1421158203 34045.6875
0836 1421160546 33909.9258
0837 1421162890 34140.0898
0838 1421165234 34101.6406
0839 1421167578 34050.7500
0840 1421169921 33997.4492
0841 1421172265 33869.3594
0842 1421174609 33901.2383
0843 1421176953 33764.7344
0844 1421179296 33855.2656
0845 1421181640 33845.5117
0846 1421183984 33807.4023
0847 1421186328 33619.4766
0848 1421188671 33594.5898
0849 1421191015 33598.7578
0850 1421193359 33703.0703
0851 1421195703 33606.5586
0852 1421198046 33513.9258
0853 1421200390 33298.3359
0854 1421202734 33265.0078
0855 1421205078 33411.4102
0856 1421207421 33198.4961
0857 1421209765 33169.5156
0858 1421212109 33022.9375
0859 1421214453 33005.5547
0860 1421216796 33019.2148
0861 1421219140 32889.7695
0862 1421221484 32908.6328
0863 1421223828 32639.6074
0864 1421226171 32679.6172
0865 1421228515 32489.2227
0866 1421230859 32448.4844
0867 1421233203 32507.2051
0868 1421235546 32347.6543
0869 1421237890 32308.1211
0870 1421240234 32094.9434
0871 1421242578 32033.2773
0872 1421244921 31926.9062
0873 1421247265 31883.0781
0874 1421249609 31731.7188
0875 1421251953 31689.3594
0876 1421254296 31490.0645
0877 1421256640 31509.2930
0878 1421258984 31382.2285
0879 1421261328 31220.7012
0880 1421263671 31056.8613
0881 1421266015 30947.0332
0882 1421268359 30814.5059
0883 1421270703 30817.4277
0884 1421273046 30688.9121
0885 1421275390 30551.7910
0886 1421277734 30485.7852
0887 1421280078 30273.6055
0888 1421282421 30102.6582
0889 1421284765 30011.3477
0890 1421287109 29851.0918
0891 1421289453 29698.3027
0892 1421291796 29585.8770
0893 1421294140 29535.1855
0894 1421296484 29433.0742
0895 1421298828 29287.6777
0896 1421301171 29100.4434
0897 1421303515 28996.5645
0898 1421305859 28823.5664
0899 1421308203 28852.8066
0900 1421310546 28575.6152
0901 1421312890 28374.6367
0902 1421315234 28178.1797
0903 1421317578 27980.9004
0904 1421319921 27912.3516
0905 1421322265 27831.0352
0906 1421324609 27555.5508
0907 1421326953 27522.6680
0908 1421329296 27258.1758
0909 1421331640 27207.1914
0910 1421333984 26980.4434
0911 1421336328 26812.4805
0912 1421338671 26740.1582
0913 1421341015 26523.7500
0914 1421343359 26364.5430
0915 1421345703 26257.1602
0916 1421348046 25892.3906
0917 1421350390 25807.5117
0918 1421352734 25644.4727
0919 1421355078 25484.3672
0920 1421357421 25231.0488
0921 1421359765 25125.9512
0922 1421362109 24996.8672
0923 1421364453 24761.5840
0924 1421366796 24689.0938
0925 1421369140 24408.9668
0926 1421371484 24212.8750
0927 1421373828 24009.7852
0928 1421376171 23903.1094
0929 1421378515 23775.3945
0930 1421380859 23559.4512
0931 1421383203 23386.9980
0932 1421385546 23261.9609
0933 1421387890 22962.9844
0934 1421390234 22850.5430
0935 1421392578 22694.9121
0936 1421394921 22474.3965
0937 1421397265 22258.6836
0938 1421399609 22154.9102
0939 1421401953 22005.5176
0940 1421404296 21849.4883
0941 1421406640 21513.7402
0942 1421408984 21352.6367
0943 1421411328 21243.9551
0944 1421413671 21021.3789
0945 1421416015 20821.0469
0946 1421418359 20605.7188
0947 1421420703 20434.6953
0948 1421423046 20344.3691
0949 1421425390 20124.1484
0950 1421427734 19935.7188
0951 1421430078 19689.7246
0952 1421432421 19575.8184
0953 1421434765 19434.9590
0954 1421437109 19256.5137
0955 1421439453 19094.9316
0956 1421441796 18856.7188
0957 1421444140 18747.6738
0958 1421446484 18554.7441
0959 1421448828 18344.2539
0960 1421451171 18182.9141
0961 1421453515 18031.0801
0962 1421455859 17884.7930
0963 1421458203 17685.5117
0964 1421460546 17467.9141
0965 1421462890 17332.0215
0966 1421465234 17187.5996
0967 1421467578 17018.7910
0968 1421469921 16825.6641
0969 1421472265 16626.9922
0970 1421474609 16471.6406
0971 1421476953 16286.9336
0972 1421479296 16102.4668
0973 1421481640 15982.6738
0974 1421483984 15816.8398
0975 1421486328 15610.5693
0976 1421488671 15577.7627
0977 1421491015 15383.9229
0978 1421493359 15186.6963
0979 1421495703 15070.7822
0980 1421498046 14925.8154
0981 1421500390 14813.4795
0982 1421502734 14674.8672
0983 1421505078 14473.8408
0984 1421507421 14338.7891
0985 1421509765 14282.7988
0986 1421512109 14074.8525
0987 1421514453 13903.5732
0988 1421516796 13832.6260
0989 1421519140 13700.4189
0990 1421521484 13533.7725
0991 1421523828 13421.7266
0992 1421526171 13279.0742
0993 1421528515 13147.7529
0994 1421530859 13007.3047
0995 1421533203 12932.7842
0996 1421535546 12869.9131
0997 1421537890 12741.0361
0998 1421540234 12573.1797
0999 1421542578 12427.7607
1000 1421544921 12380.5039
1001 1421547265 12254.0928
1002 1421549609 12164.7246
1003 1421551953 11996.8877
1004 1421554296 11929.5938
1005 1421556640 11829.8164
1006 1421558984 11729.5889
1007 1421561328 11648.9951
1008 1421563671 11593.5352
1009 1421566015 11465.1650
1010 1421568359 11389.7148
1011 1421570703 11292.3535
1012 1421573046 11214.5312
1013 1421575390 11094.5459
1014 1421577734 11031.1562
1015 1421580078 10955.9404
1016 1421582421 10877.7656
1017 1421584765 10809.1816
1018 1421587109 10759.8369
1019 1421589453 10654.7080
1020 1421591796 10626.1025
1021 1421594140 10568.7568
1022 1421596484 10488.8359
1023 1421598828 10416.1660
