# File: 20-10-09T210256.hot
# NOTEA     = Foam Pyramid Horn
# NOTEB     = Spectral Integration
# OBSERVER  = Schultz
# DEVICE    = rtl=0,bias=0
# DATADIR   = ../data/
# SITE      = Foam Pyramid Horn
# CITY      = Chicago
# REGION    = Illinois
# COUNTRY   = US
# TELTYPE   = Foam Pyramid Horn
# FRAME     = TOPO
# GAIN1     = 49.6
# GAIN2     = 49.6
# GAIN3     = 49.6
# GAIN4     = 0.0
# Count     = 490000
# CenterFreq= 1420400000.0
# Bandwidth = 2400000.0
# Duration  = 305.475478
# DeltaX    = 5859.375
# TSYS      = 200.0
# TRX       = 100.0
# TRMS      = 2.0
# TINT      = 1.0
# KPERC     = 100.0
# GAINFACT  = 1.0
# BUNIT     = Counts
# NCHAN     = 1024
# NSPEC     = 1
# NTIME     = 0
# NSAMPLES  = 0
# EPEAK     = 4.10875183718
# ERMS      = 0.995973393526
# EMJD      = 58568.808999981004 
# REFCHAN   = 512.0
# REFSAMPL  = 256.0
# NAVE      = 700
# NMEDIAN   = 1024
# Fft_rate  = 5000
# UTC       = 2020-10-09 21:02:56.401255
# SECONDS   =       0.0000000000 
# LST       = 16:28:09.420
# AZ        = 180.0
# EL        = -90.0
# TELLON    = -87:37:48.000
# TELLAT    = +41:52:01.000
# RA        = 04:26:46.990
# DEC       = -41:57:41.700
# GALLON    = 246:16:31.20
# GALLAT    = -44:03:33.70
# ALT_SUN   = +22:37:56.1
# AZ_SUN    = +237:09:25.2
# ETAA      = 0.8
# ETAB      = 0.99
# POLANGLE  = 0.0
# TELSIZEAM = 1.0
# TELSIZEBM = 1.0
# AST_VERS  = 05.01
0000 1419201171 25716.6191
0001 1419203515 25694.5488
0002 1419205859 25533.5391
0003 1419208203 25432.9414
0004 1419210546 25311.8984
0005 1419212890 25171.9414
0006 1419215234 25026.6035
0007 1419217578 24914.0879
0008 1419219921 24800.1934
0009 1419222265 24734.4688
0010 1419224609 24567.7109
0011 1419226953 24509.9570
0012 1419229296 24354.8477
0013 1419231640 24195.8750
0014 1419233984 24261.4238
0015 1419236328 24228.6895
0016 1419238671 24145.9023
0017 1419241015 23917.6348
0018 1419243359 23970.0156
0019 1419245703 23863.2324
0020 1419248046 23825.0195
0021 1419250390 23818.4922
0022 1419252734 23756.5293
0023 1419255078 23724.9160
0024 1419257421 23772.9512
0025 1419259765 23705.9258
0026 1419262109 23716.8535
0027 1419264453 23762.7656
0028 1419266796 23842.8652
0029 1419269140 23804.4863
0030 1419271484 23892.7129
0031 1419273828 23825.7559
0032 1419276171 23857.4746
0033 1419278515 23958.6660
0034 1419280859 24048.9121
0035 1419283203 24205.3398
0036 1419285546 24290.7305
0037 1419287890 24322.5586
0038 1419290234 24400.3789
0039 1419292578 24499.4199
0040 1419294921 24661.2383
0041 1419297265 24858.6094
0042 1419299609 25040.9395
0043 1419301953 25223.1309
0044 1419304296 25318.2656
0045 1419306640 25653.4590
0046 1419308984 25799.0156
0047 1419311328 26000.0098
0048 1419313671 26217.6445
0049 1419316015 26520.6348
0050 1419318359 26751.4102
0051 1419320703 26961.4785
0052 1419323046 27304.7441
0053 1419325390 27622.5000
0054 1419327734 27792.3984
0055 1419330078 28145.3066
0056 1419332421 28455.7520
0057 1419334765 28805.9961
0058 1419337109 29158.2129
0059 1419339453 29443.1445
0060 1419341796 29806.7520
0061 1419344140 30189.6582
0062 1419346484 30653.1191
0063 1419348828 30892.5352
0064 1419351171 31308.3984
0065 1419353515 31611.3262
0066 1419355859 32120.4102
0067 1419358203 32462.1348
0068 1419360546 32920.2852
0069 1419362890 33335.9414
0070 1419365234 33772.9023
0071 1419367578 34167.1133
0072 1419369921 34578.8750
0073 1419372265 35074.1797
0074 1419374609 35440.5000
0075 1419376953 35990.6562
0076 1419379296 36332.6211
0077 1419381640 36777.9766
0078 1419383984 37256.1406
0079 1419386328 37764.9414
0080 1419388671 38192.4375
0081 1419391015 38581.5391
0082 1419393359 38994.0078
0083 1419395703 39534.7383
0084 1419398046 40018.2344
0085 1419400390 40355.7891
0086 1419402734 40881.4258
0087 1419405078 41392.7188
0088 1419407421 41883.6562
0089 1419409765 42352.3047
0090 1419412109 42883.6367
0091 1419414453 43280.7930
0092 1419416796 43609.4883
0093 1419419140 44241.7773
0094 1419421484 44590.8320
0095 1419423828 45091.0273
0096 1419426171 45539.2266
0097 1419428515 45930.0820
0098 1419430859 46385.3633
0099 1419433203 46954.1484
0100 1419435546 47357.9219
0101 1419437890 47832.3359
0102 1419440234 48484.2305
0103 1419442578 48834.1094
0104 1419444921 49336.9102
0105 1419447265 49547.7734
0106 1419449609 50095.0508
0107 1419451953 50417.3086
0108 1419454296 50845.3203
0109 1419456640 51367.7734
0110 1419458984 51968.8164
0111 1419461328 52305.3047
0112 1419463671 52929.7812
0113 1419466015 53279.7891
0114 1419468359 53801.7539
0115 1419470703 54005.1992
0116 1419473046 54480.5859
0117 1419475390 54862.5586
0118 1419477734 55403.2852
0119 1419480078 56032.9922
0120 1419482421 56454.0234
0121 1419484765 56725.8828
0122 1419487109 57234.9336
0123 1419489453 57543.2852
0124 1419491796 58053.6367
0125 1419494140 58461.9844
0126 1419496484 58671.2070
0127 1419498828 58931.6719
0128 1419501171 59577.4727
0129 1419503515 59808.0625
0130 1419505859 60313.5703
0131 1419508203 60627.9453
0132 1419510546 61026.6602
0133 1419512890 61598.6016
0134 1419515234 62020.2578
0135 1419517578 62362.7695
0136 1419519921 62517.0664
0137 1419522265 62654.6953
0138 1419524609 63511.6953
0139 1419526953 63803.8867
0140 1419529296 64236.2539
0141 1419531640 64431.6836
0142 1419533984 64637.2773
0143 1419536328 65147.4336
0144 1419538671 65442.3164
0145 1419541015 65725.0234
0146 1419543359 65991.3672
0147 1419545703 66402.8828
0148 1419548046 66731.5781
0149 1419550390 66970.7344
0150 1419552734 67210.0000
0151 1419555078 67746.9453
0152 1419557421 68175.9062
0153 1419559765 68512.5000
0154 1419562109 68736.2266
0155 1419564453 68852.9609
0156 1419566796 69348.9531
0157 1419569140 69381.3750
0158 1419571484 69758.2656
0159 1419573828 69922.7109
0160 1419576171 70190.5703
0161 1419578515 70773.6094
0162 1419580859 70865.2266
0163 1419583203 71021.2812
0164 1419585546 71442.3438
0165 1419587890 71361.3359
0166 1419590234 71629.6875
0167 1419592578 72067.9922
0168 1419594921 72223.7422
0169 1419597265 72468.7891
0170 1419599609 72852.9688
0171 1419601953 72843.1953
0172 1419604296 72981.2031
0173 1419606640 73487.6406
0174 1419608984 73391.5859
0175 1419611328 73775.5547
0176 1419613671 73904.8906
0177 1419616015 74278.5234
0178 1419618359 74218.9453
0179 1419620703 74550.4219
0180 1419623046 74542.8047
0181 1419625390 74608.2578
0182 1419627734 74555.2344
0183 1419630078 75064.5078
0184 1419632421 75499.3281
0185 1419634765 75372.6875
0186 1419637109 75718.5078
0187 1419639453 75764.0469
0188 1419641796 75711.8047
0189 1419644140 76138.7266
0190 1419646484 76385.8828
0191 1419648828 75905.3828
0192 1419651171 76218.0469
0193 1419653515 76339.8984
0194 1419655859 76726.5859
0195 1419658203 76756.5391
0196 1419660546 76888.8594
0197 1419662890 76947.6641
0198 1419665234 77092.1562
0199 1419667578 77385.7734
0200 1419669921 77090.8047
0201 1419672265 77304.0156
0202 1419674609 77233.3438
0203 1419676953 77285.6328
0204 1419679296 77488.6562
0205 1419681640 77489.3984
0206 1419683984 77602.8281
0207 1419686328 77654.8359
0208 1419688671 77755.6406
0209 1419691015 77913.0781
0210 1419693359 77678.9219
0211 1419695703 78001.9922
0212 1419698046 77830.9922
0213 1419700390 77822.9219
0214 1419702734 77728.8906
0215 1419705078 77885.6641
0216 1419707421 77923.6562
0217 1419709765 78223.9062
0218 1419712109 77877.0391
0219 1419714453 77982.9922
0220 1419716796 78155.0547
0221 1419719140 78402.8516
0222 1419721484 78132.4844
0223 1419723828 78147.2969
0224 1419726171 78094.2031
0225 1419728515 78085.7109
0226 1419730859 78047.8359
0227 1419733203 77890.2188
0228 1419735546 77838.7344
0229 1419737890 77913.1016
0230 1419740234 77959.3750
0231 1419742578 78181.4844
0232 1419744921 77899.0312
0233 1419747265 77973.6562
0234 1419749609 77916.1719
0235 1419751953 77954.9219
0236 1419754296 77651.9766
0237 1419756640 78109.1328
0238 1419758984 77891.9766
0239 1419761328 78010.9453
0240 1419763671 77871.7500
0241 1419766015 77916.5000
0242 1419768359 77556.6016
0243 1419770703 77806.9688
0244 1419773046 77490.2578
0245 1419775390 77373.2109
0246 1419777734 77449.6172
0247 1419780078 77462.5859
0248 1419782421 77375.0391
0249 1419784765 77309.5781
0250 1419787109 77314.0234
0251 1419789453 77330.8984
0252 1419791796 77085.9062
0253 1419794140 77022.7031
0254 1419796484 77205.9766
0255 1419798828 77057.3672
0256 1419801171 77231.9453
0257 1419803515 77106.8516
0258 1419805859 77025.5859
0259 1419808203 76856.8828
0260 1419810546 77164.7422
0261 1419812890 76673.6016
0262 1419815234 76863.2031
0263 1419817578 76700.4062
0264 1419819921 76562.0547
0265 1419822265 76647.4375
0266 1419824609 76246.5000
0267 1419826953 76141.1484
0268 1419829296 76253.2812
0269 1419831640 75995.0781
0270 1419833984 76067.8672
0271 1419836328 75895.9297
0272 1419838671 76173.5859
0273 1419841015 75952.8203
0274 1419843359 76010.4688
0275 1419845703 75813.9766
0276 1419848046 75774.2891
0277 1419850390 75735.6719
0278 1419852734 75303.3828
0279 1419855078 75533.1484
0280 1419857421 75482.5312
0281 1419859765 75308.1172
0282 1419862109 75318.4766
0283 1419864453 75079.3125
0284 1419866796 75057.9766
0285 1419869140 75401.6484
0286 1419871484 75511.4609
0287 1419873828 75241.2031
0288 1419876171 74896.0703
0289 1419878515 74888.2031
0290 1419880859 74934.3594
0291 1419883203 74740.7656
0292 1419885546 74780.3828
0293 1419887890 74833.1016
0294 1419890234 74857.5625
0295 1419892578 74501.6953
0296 1419894921 74685.5391
0297 1419897265 74421.3906
0298 1419899609 74401.3516
0299 1419901953 74475.8750
0300 1419904296 74644.8984
0301 1419906640 74533.0625
0302 1419908984 74120.2969
0303 1419911328 74242.9141
0304 1419913671 74375.6562
0305 1419916015 73987.1953
0306 1419918359 74107.6406
0307 1419920703 74082.8438
0308 1419923046 73986.6250
0309 1419925390 73674.9062
0310 1419927734 73790.5391
0311 1419930078 73764.9922
0312 1419932421 73836.8516
0313 1419934765 74009.4688
0314 1419937109 73892.5547
0315 1419939453 73811.8750
0316 1419941796 74048.3750
0317 1419944140 73963.6641
0318 1419946484 73477.4141
0319 1419948828 73573.0938
0320 1419951171 73747.5391
0321 1419953515 73607.3281
0322 1419955859 73752.0156
0323 1419958203 73823.0938
0324 1419960546 73710.1562
0325 1419962890 73529.8828
0326 1419965234 73563.2031
0327 1419967578 73353.5312
0328 1419969921 73527.9609
0329 1419972265 73424.1172
0330 1419974609 73408.2734
0331 1419976953 73603.6094
0332 1419979296 73426.5000
0333 1419981640 73530.9453
0334 1419983984 73651.3438
0335 1419986328 74003.7812
0336 1419988671 73885.9219
0337 1419991015 73648.5859
0338 1419993359 73752.8203
0339 1419995703 73467.1953
0340 1419998046 73490.4375
0341 1420000390 73677.8125
0342 1420002734 73654.6719
0343 1420005078 73502.0469
0344 1420007421 73634.2500
0345 1420009765 73590.1250
0346 1420012109 73558.3125
0347 1420014453 73759.2031
0348 1420016796 73827.8906
0349 1420019140 73987.1406
0350 1420021484 74133.1875
0351 1420023828 74385.0078
0352 1420026171 74148.7656
0353 1420028515 73978.8594
0354 1420030859 74264.5547
0355 1420033203 73889.3438
0356 1420035546 74003.4062
0357 1420037890 74198.5625
0358 1420040234 74226.6797
0359 1420042578 74231.9141
0360 1420044921 74126.2812
0361 1420047265 74498.3516
0362 1420049609 74489.9219
0363 1420051953 74605.6797
0364 1420054296 74623.1719
0365 1420056640 74435.2344
0366 1420058984 74935.2812
0367 1420061328 74866.0781
0368 1420063671 74644.7656
0369 1420066015 74910.8047
0370 1420068359 74880.5781
0371 1420070703 75068.8438
0372 1420073046 74685.9297
0373 1420075390 74824.8047
0374 1420077734 75062.1172
0375 1420080078 75281.4297
0376 1420082421 75244.5625
0377 1420084765 75538.8594
0378 1420087109 75736.5781
0379 1420089453 75616.2734
0380 1420091796 75746.8047
0381 1420094140 75617.0156
0382 1420096484 75894.8594
0383 1420098828 76036.5938
0384 1420101171 75959.7188
0385 1420103515 75819.0859
0386 1420105859 76116.3672
0387 1420108203 76375.0156
0388 1420110546 76775.8594
0389 1420112890 76697.6016
0390 1420115234 76737.0703
0391 1420117578 76695.3125
0392 1420119921 76821.6875
0393 1420122265 76646.4609
0394 1420124609 76994.3125
0395 1420126953 77139.0469
0396 1420129296 77052.3281
0397 1420131640 77287.6172
0398 1420133984 77332.4922
0399 1420136328 77423.2500
0400 1420138671 77673.4922
0401 1420141015 77532.1406
0402 1420143359 77887.4062
0403 1420145703 77969.7188
0404 1420148046 77875.2031
0405 1420150390 78027.1641
0406 1420152734 78078.3516
0407 1420155078 78442.8359
0408 1420157421 78400.4219
0409 1420159765 78789.6719
0410 1420162109 78356.9453
0411 1420164453 78716.8672
0412 1420166796 79236.8594
0413 1420169140 78964.9375
0414 1420171484 79117.8203
0415 1420173828 79312.0312
0416 1420176171 79463.6484
0417 1420178515 79709.9844
0418 1420180859 79418.2109
0419 1420183203 79624.0547
0420 1420185546 79242.3906
0421 1420187890 79577.1328
0422 1420190234 79877.7812
0423 1420192578 80337.6094
0424 1420194921 80058.0312
0425 1420197265 80380.3828
0426 1420199609 80359.8828
0427 1420201953 80468.1875
0428 1420204296 80751.0859
0429 1420206640 80491.9609
0430 1420208984 80581.6875
0431 1420211328 80675.7031
0432 1420213671 81152.8906
0433 1420216015 81335.7344
0434 1420218359 81147.1328
0435 1420220703 81312.6484
0436 1420223046 81411.6172
0437 1420225390 81756.9922
0438 1420227734 81743.1016
0439 1420230078 82036.3984
0440 1420232421 81831.0312
0441 1420234765 82046.9297
0442 1420237109 82148.5781
0443 1420239453 82550.2578
0444 1420241796 82422.6328
0445 1420244140 82540.9531
0446 1420246484 82628.0156
0447 1420248828 82895.7891
0448 1420251171 82830.6953
0449 1420253515 82889.5078
0450 1420255859 82719.6094
0451 1420258203 82894.6172
0452 1420260546 83119.5078
0453 1420262890 83076.1875
0454 1420265234 83343.8047
0455 1420267578 83496.7109
0456 1420269921 83537.9531
0457 1420272265 83822.8281
0458 1420274609 84129.2734
0459 1420276953 83943.8984
0460 1420279296 83801.7578
0461 1420281640 83991.1953
0462 1420283984 84039.5000
0463 1420286328 84386.8438
0464 1420288671 84446.6797
0465 1420291015 84249.4766
0466 1420293359 84361.0000
0467 1420295703 84470.5234
0468 1420298046 84793.4844
0469 1420300390 84691.9688
0470 1420302734 84630.7188
0471 1420305078 85039.2734
0472 1420307421 84659.9062
0473 1420309765 85236.7734
0474 1420312109 85152.2266
0475 1420314453 84796.3672
0476 1420316796 85362.6797
0477 1420319140 85160.5469
0478 1420321484 85408.6328
0479 1420323828 85915.6875
0480 1420326171 85735.9688
0481 1420328515 85657.0391
0482 1420330859 85843.5391
0483 1420333203 85783.6016
0484 1420335546 85898.1875
0485 1420337890 85756.7734
0486 1420340234 85814.7500
0487 1420342578 85967.4219
0488 1420344921 85931.2656
0489 1420347265 86088.8828
0490 1420349609 85840.3047
0491 1420351953 86147.1328
0492 1420354296 86108.3828
0493 1420356640 86089.9531
0494 1420358984 86453.6172
0495 1420361328 86236.4688
0496 1420363671 86325.8359
0497 1420366015 86328.5312
0498 1420368359 86234.7109
0499 1420370703 86563.8359
0500 1420373046 86722.3359
0501 1420375390 86563.1641
0502 1420377734 86555.2344
0503 1420380078 86886.8047
0504 1420382421 86635.1094
0505 1420384765 86888.3125
0506 1420387109 86772.5625
0507 1420389453 86627.6406
0508 1420391796 86772.7969
0509 1420394140 86756.6406
0510 1420396484 86742.9062
0511 1420398828 86499.2031
0512 1420401171 86774.8359
0513 1420403515 86776.8516
0514 1420405859 86810.8359
0515 1420408203 86677.4297
0516 1420410546 86423.2812
0517 1420412890 86783.6953
0518 1420415234 86602.5000
0519 1420417578 86625.6875
0520 1420419921 86946.7344
0521 1420422265 86893.9531
0522 1420424609 86833.5312
0523 1420426953 86421.6953
0524 1420429296 86573.3984
0525 1420431640 87129.2969
0526 1420433984 86677.2500
0527 1420436328 86357.6328
0528 1420438671 86541.1797
0529 1420441015 86242.8906
0530 1420443359 86187.2031
0531 1420445703 86283.8594
0532 1420448046 86258.3203
0533 1420450390 86649.8672
0534 1420452734 86377.1797
0535 1420455078 86458.8906
0536 1420457421 86121.6797
0537 1420459765 86254.8672
0538 1420462109 86318.4688
0539 1420464453 86380.9219
0540 1420466796 86134.5156
0541 1420469140 85977.4531
0542 1420471484 86069.2734
0543 1420473828 85777.3359
0544 1420476171 86091.2812
0545 1420478515 85872.2422
0546 1420480859 85734.4297
0547 1420483203 85593.1719
0548 1420485546 85902.2734
0549 1420487890 85571.7969
0550 1420490234 85561.4531
0551 1420492578 85612.0938
0552 1420494921 85399.2031
0553 1420497265 85252.5469
0554 1420499609 85468.2578
0555 1420501953 85188.7891
0556 1420504296 84804.4766
0557 1420506640 85206.4219
0558 1420508984 85195.5000
0559 1420511328 85253.7031
0560 1420513671 85440.3984
0561 1420516015 84790.9922
0562 1420518359 84689.9297
0563 1420520703 84785.5547
0564 1420523046 84739.5469
0565 1420525390 84639.2188
0566 1420527734 84272.7656
0567 1420530078 84238.2422
0568 1420532421 84076.3672
0569 1420534765 84029.5938
0570 1420537109 84254.0938
0571 1420539453 84184.7812
0572 1420541796 83650.6719
0573 1420544140 83603.2422
0574 1420546484 83670.6172
0575 1420548828 83725.8438
0576 1420551171 83141.6719
0577 1420553515 83424.0391
0578 1420555859 83622.2031
0579 1420558203 82986.9922
0580 1420560546 82911.2578
0581 1420562890 82907.1953
0582 1420565234 83124.5000
0583 1420567578 82822.1562
0584 1420569921 82810.4219
0585 1420572265 82761.2578
0586 1420574609 82427.3203
0587 1420576953 82233.4922
0588 1420579296 82353.3984
0589 1420581640 82443.9141
0590 1420583984 82073.7812
0591 1420586328 81987.9766
0592 1420588671 81898.1172
0593 1420591015 81723.2734
0594 1420593359 81448.1484
0595 1420595703 81401.7969
0596 1420598046 81391.0547
0597 1420600390 81238.5000
0598 1420602734 81267.7266
0599 1420605078 81213.5312
0600 1420607421 81223.7656
0601 1420609765 81151.9688
0602 1420612109 81237.7188
0603 1420614453 81006.1875
0604 1420616796 80677.4062
0605 1420619140 80480.8594
0606 1420621484 80472.2734
0607 1420623828 80620.9531
0608 1420626171 80349.1875
0609 1420628515 80190.2656
0610 1420630859 80079.3203
0611 1420633203 80058.7734
0612 1420635546 79997.8750
0613 1420637890 79746.0391
0614 1420640234 79489.5547
0615 1420642578 79540.6875
0616 1420644921 79280.8203
0617 1420647265 79370.0625
0618 1420649609 79316.4219
0619 1420651953 79181.0625
0620 1420654296 79230.0547
0621 1420656640 79021.9062
0622 1420658984 79010.2656
0623 1420661328 78865.1094
0624 1420663671 78754.2500
0625 1420666015 78426.3984
0626 1420668359 78627.0547
0627 1420670703 78596.6797
0628 1420673046 78180.9062
0629 1420675390 78305.2266
0630 1420677734 78172.9844
0631 1420680078 78110.9922
0632 1420682421 77732.3828
0633 1420684765 77830.8672
0634 1420687109 77888.5938
0635 1420689453 77771.3906
0636 1420691796 77849.9766
0637 1420694140 77307.1484
0638 1420696484 77497.1797
0639 1420698828 77384.4766
0640 1420701171 77490.5000
0641 1420703515 77500.6875
0642 1420705859 77351.8828
0643 1420708203 77348.6953
0644 1420710546 77087.7812
0645 1420712890 76804.9766
0646 1420715234 76841.8047
0647 1420717578 76950.0312
0648 1420719921 76827.2812
0649 1420722265 76770.0625
0650 1420724609 76856.9688
0651 1420726953 76877.3672
0652 1420729296 76792.2969
0653 1420731640 76431.1250
0654 1420733984 76583.7344
0655 1420736328 76530.7188
0656 1420738671 76588.9844
0657 1420741015 76302.2578
0658 1420743359 76305.8125
0659 1420745703 76211.1016
0660 1420748046 76316.2578
0661 1420750390 76262.1328
0662 1420752734 75923.4766
0663 1420755078 76038.5156
0664 1420757421 75978.9766
0665 1420759765 76018.4453
0666 1420762109 76283.7891
0667 1420764453 76260.1016
0668 1420766796 75933.1484
0669 1420769140 76088.8125
0670 1420771484 75933.3828
0671 1420773828 76080.3438
0672 1420776171 75578.1562
0673 1420778515 75749.8281
0674 1420780859 75722.2500
0675 1420783203 75711.6562
0676 1420785546 76170.1094
0677 1420787890 75965.9141
0678 1420790234 75855.2031
0679 1420792578 75588.9844
0680 1420794921 75628.5938
0681 1420797265 75755.7500
0682 1420799609 75702.6328
0683 1420801953 75525.1016
0684 1420804296 75635.4062
0685 1420806640 75665.9531
0686 1420808984 75680.3125
0687 1420811328 75859.1875
0688 1420813671 75555.7656
0689 1420816015 75617.9766
0690 1420818359 75618.1250
0691 1420820703 75643.0391
0692 1420823046 75965.5703
0693 1420825390 75811.1875
0694 1420827734 75928.8828
0695 1420830078 76088.9609
0696 1420832421 75822.2891
0697 1420834765 75913.4062
0698 1420837109 76005.9375
0699 1420839453 75880.9141
0700 1420841796 76042.0469
0701 1420844140 76022.8359
0702 1420846484 76194.0547
0703 1420848828 76098.9297
0704 1420851171 76056.8281
0705 1420853515 76235.1172
0706 1420855859 76129.6641
0707 1420858203 75966.6094
0708 1420860546 76333.5547
0709 1420862890 76197.9453
0710 1420865234 76432.1250
0711 1420867578 76647.1719
0712 1420869921 76483.5312
0713 1420872265 76564.9062
0714 1420874609 76816.6641
0715 1420876953 76758.1172
0716 1420879296 76929.2109
0717 1420881640 76732.2031
0718 1420883984 76774.1328
0719 1420886328 76901.7031
0720 1420888671 76914.8672
0721 1420891015 77059.1172
0722 1420893359 77142.4453
0723 1420895703 77236.6797
0724 1420898046 77084.1719
0725 1420900390 77382.0859
0726 1420902734 77418.3047
0727 1420905078 77354.7500
0728 1420907421 77573.0781
0729 1420909765 77646.3438
0730 1420912109 77708.3828
0731 1420914453 77587.3750
0732 1420916796 77619.7422
0733 1420919140 78004.1094
0734 1420921484 78434.3750
0735 1420923828 78171.2031
0736 1420926171 78232.1719
0737 1420928515 78137.0938
0738 1420930859 78244.8672
0739 1420933203 78475.5234
0740 1420935546 78694.6875
0741 1420937890 78658.0547
0742 1420940234 78770.5078
0743 1420942578 78934.9844
0744 1420944921 79104.8594
0745 1420947265 79199.6797
0746 1420949609 79541.4375
0747 1420951953 79278.3359
0748 1420954296 79524.0078
0749 1420956640 79670.6094
0750 1420958984 79805.7656
0751 1420961328 79849.0469
0752 1420963671 79833.1719
0753 1420966015 79745.6484
0754 1420968359 79928.9297
0755 1420970703 80144.8594
0756 1420973046 80481.8750
0757 1420975390 80323.3359
0758 1420977734 80344.4609
0759 1420980078 80790.9922
0760 1420982421 80708.2344
0761 1420984765 80816.4375
0762 1420987109 81096.1719
0763 1420989453 81048.3984
0764 1420991796 81518.2109
0765 1420994140 81239.3359
0766 1420996484 81497.7031
0767 1420998828 81240.2031
0768 1421001171 81433.4375
0769 1421003515 81632.4766
0770 1421005859 82084.9141
0771 1421008203 81841.1484
0772 1421010546 81988.5938
0773 1421012890 82129.3828
0774 1421015234 82110.5469
0775 1421017578 82088.1250
0776 1421019921 82531.0547
0777 1421022265 82544.3906
0778 1421024609 82600.3906
0779 1421026953 82440.7969
0780 1421029296 82772.7109
0781 1421031640 83178.6719
0782 1421033984 83245.5469
0783 1421036328 82683.4531
0784 1421038671 82974.6797
0785 1421041015 83068.9219
0786 1421043359 83364.1016
0787 1421045703 83475.2656
0788 1421048046 83458.6953
0789 1421050390 83629.8438
0790 1421052734 83690.1719
0791 1421055078 83692.1172
0792 1421057421 83875.8984
0793 1421059765 83958.7578
0794 1421062109 84030.6562
0795 1421064453 84174.4141
0796 1421066796 84472.4062
0797 1421069140 84329.4844
0798 1421071484 84177.7734
0799 1421073828 84202.3516
0800 1421076171 84725.1953
0801 1421078515 84793.3906
0802 1421080859 84529.6562
0803 1421083203 84370.3672
0804 1421085546 84476.2734
0805 1421087890 84669.6562
0806 1421090234 84793.1953
0807 1421092578 84733.0703
0808 1421094921 84822.2266
0809 1421097265 85065.8828
0810 1421099609 85096.5547
0811 1421101953 84971.3047
0812 1421104296 85022.9062
0813 1421106640 85042.5078
0814 1421108984 85089.8125
0815 1421111328 85065.5859
0816 1421113671 85439.4375
0817 1421116015 85107.3516
0818 1421118359 85304.9922
0819 1421120703 85744.6797
0820 1421123046 85247.4297
0821 1421125390 85203.8516
0822 1421127734 85195.1719
0823 1421130078 85228.3984
0824 1421132421 85101.4297
0825 1421134765 85030.5234
0826 1421137109 85136.8125
0827 1421139453 85003.0391
0828 1421141796 85403.8594
0829 1421144140 85340.2109
0830 1421146484 85556.6484
0831 1421148828 85177.1875
0832 1421151171 84984.8125
0833 1421153515 84978.5859
0834 1421155859 84789.1250
0835 1421158203 84908.0469
0836 1421160546 84962.7344
0837 1421162890 84906.3125
0838 1421165234 84880.8359
0839 1421167578 84783.8281
0840 1421169921 84456.2734
0841 1421172265 84566.8516
0842 1421174609 84390.8750
0843 1421176953 84616.1562
0844 1421179296 84184.7188
0845 1421181640 84064.7422
0846 1421183984 83780.6406
0847 1421186328 83963.1797
0848 1421188671 84130.4844
0849 1421191015 83875.7422
0850 1421193359 83543.2266
0851 1421195703 83327.0938
0852 1421198046 83382.0391
0853 1421200390 83251.7422
0854 1421202734 82954.6094
0855 1421205078 82875.8906
0856 1421207421 82747.9688
0857 1421209765 82583.1016
0858 1421212109 82411.9609
0859 1421214453 82184.3672
0860 1421216796 82276.5703
0861 1421219140 81866.7109
0862 1421221484 81806.2188
0863 1421223828 81481.3906
0864 1421226171 81245.4219
0865 1421228515 81054.9375
0866 1421230859 80784.9062
0867 1421233203 80998.9453
0868 1421235546 80546.5078
0869 1421237890 80165.9609
0870 1421240234 79903.5625
0871 1421242578 80138.8047
0872 1421244921 79795.4219
0873 1421247265 79129.1641
0874 1421249609 79072.6953
0875 1421251953 78919.5078
0876 1421254296 78670.7266
0877 1421256640 78513.1719
0878 1421258984 78300.8594
0879 1421261328 77635.7500
0880 1421263671 77418.2656
0881 1421266015 77333.8906
0882 1421268359 77123.8359
0883 1421270703 76810.1562
0884 1421273046 76376.5781
0885 1421275390 76405.5156
0886 1421277734 76207.2109
0887 1421280078 75738.8594
0888 1421282421 75536.0469
0889 1421284765 75140.9062
0890 1421287109 74458.2188
0891 1421289453 74326.3047
0892 1421291796 73965.5312
0893 1421294140 73498.8750
0894 1421296484 73403.4609
0895 1421298828 72954.8984
0896 1421301171 72830.4453
0897 1421303515 72098.7656
0898 1421305859 72282.6094
0899 1421308203 71701.0391
0900 1421310546 71091.6484
0901 1421312890 70711.1250
0902 1421315234 70520.5703
0903 1421317578 69968.4922
0904 1421319921 70119.6172
0905 1421322265 69371.0469
0906 1421324609 68824.2891
0907 1421326953 68672.1641
0908 1421329296 68177.3984
0909 1421331640 67783.4375
0910 1421333984 67461.8906
0911 1421336328 67012.7578
0912 1421338671 66486.8359
0913 1421341015 65972.9531
0914 1421343359 65728.4297
0915 1421345703 65091.7031
0916 1421348046 64814.9102
0917 1421350390 64317.2031
0918 1421352734 64152.2617
0919 1421355078 63460.3320
0920 1421357421 63105.4609
0921 1421359765 62714.7070
0922 1421362109 62304.0508
0923 1421364453 61854.2109
0924 1421366796 61611.1328
0925 1421369140 61092.1602
0926 1421371484 60615.5156
0927 1421373828 60057.0898
0928 1421376171 59684.5352
0929 1421378515 59256.1289
0930 1421380859 58825.7070
0931 1421383203 58452.8008
0932 1421385546 57959.2891
0933 1421387890 57646.4414
0934 1421390234 57049.4414
0935 1421392578 56470.8438
0936 1421394921 56065.7617
0937 1421397265 55789.3086
0938 1421399609 55303.0352
0939 1421401953 54716.4883
0940 1421404296 54377.8320
0941 1421406640 53841.9375
0942 1421408984 53317.4453
0943 1421411328 53134.5898
0944 1421413671 52451.2852
0945 1421416015 52271.7070
0946 1421418359 51684.3789
0947 1421420703 51156.3047
0948 1421423046 50850.6758
0949 1421425390 50401.7109
0950 1421427734 49813.2305
0951 1421430078 49569.7500
0952 1421432421 48993.2773
0953 1421434765 48461.7930
0954 1421437109 48078.2344
0955 1421439453 47814.5039
0956 1421441796 47323.7773
0957 1421444140 46889.9375
0958 1421446484 46333.2852
0959 1421448828 45809.6523
0960 1421451171 45442.5078
0961 1421453515 45013.9375
0962 1421455859 44669.3477
0963 1421458203 44226.3438
0964 1421460546 43885.1953
0965 1421462890 43380.1055
0966 1421465234 42885.9492
0967 1421467578 42427.7422
0968 1421469921 42083.8828
0969 1421472265 41753.1406
0970 1421474609 41276.1641
0971 1421476953 41081.7422
0972 1421479296 40530.4414
0973 1421481640 40228.6055
0974 1421483984 39694.6875
0975 1421486328 39355.7148
0976 1421488671 38914.4453
0977 1421491015 38528.2266
0978 1421493359 38220.5352
0979 1421495703 37833.8398
0980 1421498046 37382.1328
0981 1421500390 36975.7891
0982 1421502734 36568.1797
0983 1421505078 36311.3047
0984 1421507421 35946.3008
0985 1421509765 35628.7461
0986 1421512109 35377.3633
0987 1421514453 35087.5586
0988 1421516796 34642.2305
0989 1421519140 34289.6562
0990 1421521484 33934.1250
0991 1421523828 33543.0820
0992 1421526171 33277.7266
0993 1421528515 32909.1836
0994 1421530859 32703.0879
0995 1421533203 32483.1074
0996 1421535546 31956.7852
0997 1421537890 31715.6992
0998 1421540234 31494.7109
0999 1421542578 31193.9648
1000 1421544921 30913.2129
1001 1421547265 30656.3555
1002 1421549609 30307.7910
1003 1421551953 30157.0840
1004 1421554296 29886.8496
1005 1421556640 29600.1094
1006 1421558984 29378.2910
1007 1421561328 29184.4395
1008 1421563671 28899.3770
1009 1421566015 28735.8574
1010 1421568359 28507.0801
1011 1421570703 28265.8906
1012 1421573046 28040.0781
1013 1421575390 27877.6074
1014 1421577734 27645.8594
1015 1421580078 27364.9043
1016 1421582421 27134.4316
1017 1421584765 26976.4785
1018 1421587109 26898.4434
1019 1421589453 26572.4121
1020 1421591796 26545.6953
1021 1421594140 26420.6543
1022 1421596484 26239.9141
1023 1421598828 26062.8516
