# File: 20-10-10T010137.ast
# NOTEA     = Foam Pyramid Horn
# NOTEB     = Spectral Integration
# OBSERVER  = Schultz
# DEVICE    = rtl=0,bias=0
# DATADIR   = ../data/
# SITE      = Foam Pyramid Horn
# CITY      = Chicago
# REGION    = Illinois
# COUNTRY   = US
# TELTYPE   = Foam Pyramid Horn
# FRAME     = TOPO
# GAIN1     = 49.6
# GAIN2     = 49.6
# GAIN3     = 49.6
# GAIN4     = 0.0
# Count     = 490000
# CenterFreq= 1420400000.0
# Bandwidth = 2400000.0
# Duration  = 305.833987
# DeltaX    = 5859.375
# TSYS      = 200.0
# TRX       = 100.0
# TRMS      = 2.0
# TINT      = 1.0
# KPERC     = 100.0
# GAINFACT  = 1.0
# BUNIT     = Counts
# NCHAN     = 1024
# NSPEC     = 1
# NTIME     = 0
# NSAMPLES  = 0
# EPEAK     = 4.10875183718
# ERMS      = 0.995973393526
# EMJD      = 58568.808999981004 
# REFCHAN   = 512.0
# REFSAMPL  = 256.0
# NAVE      = 700
# NMEDIAN   = 1024
# Fft_rate  = 5000
# UTC       = 2020-10-10 01:01:37.156016
# SECONDS   =       0.0000000000 
# LST       = 20:27:29.390
# AZ        = 180.0
# EL        = 40.0
# TELLON    = -87:37:48.000
# TELLAT    = +41:52:01.000
# RA        = 20:25:15.970
# DEC       = -08:17:23.000
# GALLON    = 36:09:58.00
# GALLAT    = -24:36:07.00
# ALT_SUN   = -20:06:45.6
# AZ_SUN    = +279:12:44.9
# ETAA      = 0.8
# ETAB      = 0.99
# POLANGLE  = 0.0
# TELSIZEAM = 1.0
# TELSIZEBM = 1.0
# AST_VERS  = 05.01
0000 1419201171 10139.1260
0001 1419203515 10123.6465
0002 1419205859 10019.1240
0003 1419208203 10001.9463
0004 1419210546 9959.8457
0005 1419212890 9912.2725
0006 1419215234 9856.9746
0007 1419217578 9791.7129
0008 1419219921 9833.7842
0009 1419222265 9769.3096
0010 1419224609 9705.3262
0011 1419226953 9712.3711
0012 1419229296 9658.7803
0013 1419231640 9636.3691
0014 1419233984 9579.8047
0015 1419236328 9597.8086
0016 1419238671 9574.7314
0017 1419241015 9557.5938
0018 1419243359 9550.0762
0019 1419245703 9521.8691
0020 1419248046 9526.9297
0021 1419250390 9509.3096
0022 1419252734 9407.3154
0023 1419255078 9448.9365
0024 1419257421 9455.9443
0025 1419259765 9467.5879
0026 1419262109 9452.3633
0027 1419264453 9456.2979
0028 1419266796 9474.4990
0029 1419269140 9481.1572
0030 1419271484 9544.9160
0031 1419273828 9494.7666
0032 1419276171 9568.9229
0033 1419278515 9587.3281
0034 1419280859 9640.7764
0035 1419283203 9695.1260
0036 1419285546 9711.1094
0037 1419287890 9698.4072
0038 1419290234 9739.9404
0039 1419292578 9841.8691
0040 1419294921 9921.0986
0041 1419297265 9951.3223
0042 1419299609 10019.9727
0043 1419301953 10094.2520
0044 1419304296 10208.3975
0045 1419306640 10240.8633
0046 1419308984 10327.7227
0047 1419311328 10409.3877
0048 1419313671 10514.9502
0049 1419316015 10624.6973
0050 1419318359 10683.4375
0051 1419320703 10808.7520
0052 1419323046 10934.6270
0053 1419325390 11038.6699
0054 1419327734 11177.3682
0055 1419330078 11296.4248
0056 1419332421 11488.7588
0057 1419334765 11568.3359
0058 1419337109 11659.1943
0059 1419339453 11776.9814
0060 1419341796 11930.8633
0061 1419344140 12117.3066
0062 1419346484 12247.8857
0063 1419348828 12445.1025
0064 1419351171 12552.4941
0065 1419353515 12720.1582
0066 1419355859 12901.5039
0067 1419358203 13024.9189
0068 1419360546 13219.1562
0069 1419362890 13445.6699
0070 1419365234 13589.8545
0071 1419367578 13771.4863
0072 1419369921 13885.5986
0073 1419372265 14051.5488
0074 1419374609 14246.9043
0075 1419376953 14421.5869
0076 1419379296 14587.4561
0077 1419381640 14822.6436
0078 1419383984 14983.7666
0079 1419386328 15068.8125
0080 1419388671 15412.2861
0081 1419391015 15681.2246
0082 1419393359 15708.1875
0083 1419395703 15929.7275
0084 1419398046 16031.1885
0085 1419400390 16243.0947
0086 1419402734 16385.7422
0087 1419405078 16558.4531
0088 1419407421 16809.0703
0089 1419409765 16989.2520
0090 1419412109 17170.6816
0091 1419414453 17363.1426
0092 1419416796 17536.6719
0093 1419419140 17699.5156
0094 1419421484 17845.9629
0095 1419423828 18062.6328
0096 1419426171 18272.9102
0097 1419428515 18490.0020
0098 1419430859 18585.2949
0099 1419433203 18805.4902
0100 1419435546 18974.4102
0101 1419437890 19192.9648
0102 1419440234 19346.9297
0103 1419442578 19589.8965
0104 1419444921 19789.6484
0105 1419447265 19946.0840
0106 1419449609 20172.9961
0107 1419451953 20262.8184
0108 1419454296 20448.7305
0109 1419456640 20767.6387
0110 1419458984 20860.1875
0111 1419461328 21018.6191
0112 1419463671 21185.5820
0113 1419466015 21371.4727
0114 1419468359 21559.0723
0115 1419470703 21665.6406
0116 1419473046 21884.7578
0117 1419475390 22046.4004
0118 1419477734 22193.4844
0119 1419480078 22427.1816
0120 1419482421 22558.2227
0121 1419484765 22700.8828
0122 1419487109 22900.2871
0123 1419489453 23145.7109
0124 1419491796 23257.6133
0125 1419494140 23398.3105
0126 1419496484 23540.7773
0127 1419498828 23699.1230
0128 1419501171 23829.2539
0129 1419503515 24027.5391
0130 1419505859 24218.1562
0131 1419508203 24332.6289
0132 1419510546 24585.6074
0133 1419512890 24682.4883
0134 1419515234 24867.9102
0135 1419517578 24900.4688
0136 1419519921 25131.9395
0137 1419522265 25278.0898
0138 1419524609 25289.6934
0139 1419526953 25541.9648
0140 1419529296 25651.7988
0141 1419531640 25773.1211
0142 1419533984 25966.0078
0143 1419536328 26186.1094
0144 1419538671 26249.8477
0145 1419541015 26325.0488
0146 1419543359 26559.6289
0147 1419545703 26565.1426
0148 1419548046 26707.9004
0149 1419550390 26887.9688
0150 1419552734 27028.6152
0151 1419555078 27034.3008
0152 1419557421 27250.0645
0153 1419559765 27313.4180
0154 1419562109 27539.5449
0155 1419564453 27640.0449
0156 1419566796 27810.4297
0157 1419569140 27886.3945
0158 1419571484 27937.6934
0159 1419573828 28079.1465
0160 1419576171 28129.4316
0161 1419578515 28314.0703
0162 1419580859 28358.0352
0163 1419583203 28471.9082
0164 1419585546 28613.1367
0165 1419587890 28682.5723
0166 1419590234 28700.3496
0167 1419592578 28944.3164
0168 1419594921 29057.6699
0169 1419597265 28987.2930
0170 1419599609 28996.1914
0171 1419601953 29235.5215
0172 1419604296 29288.8477
0173 1419606640 29253.7695
0174 1419608984 29426.0410
0175 1419611328 29588.2402
0176 1419613671 29597.2793
0177 1419616015 29717.4355
0178 1419618359 29702.9512
0179 1419620703 29882.1387
0180 1419623046 29781.9258
0181 1419625390 29901.8887
0182 1419627734 30099.7402
0183 1419630078 30055.7266
0184 1419632421 30115.1172
0185 1419634765 30279.1875
0186 1419637109 30373.4961
0187 1419639453 30279.3691
0188 1419641796 30486.7773
0189 1419644140 30447.9336
0190 1419646484 30417.8555
0191 1419648828 30444.4316
0192 1419651171 30546.9980
0193 1419653515 30552.6445
0194 1419655859 30736.6152
0195 1419658203 30789.7168
0196 1419660546 30758.5527
0197 1419662890 30742.5762
0198 1419665234 30804.7344
0199 1419667578 30921.8223
0200 1419669921 30865.2578
0201 1419672265 30980.1992
0202 1419674609 30865.6602
0203 1419676953 30912.3242
0204 1419679296 31095.7578
0205 1419681640 31112.2910
0206 1419683984 31104.2031
0207 1419686328 31066.6387
0208 1419688671 31099.3320
0209 1419691015 31059.5723
0210 1419693359 31202.7480
0211 1419695703 31228.6660
0212 1419698046 31225.8047
0213 1419700390 31109.4375
0214 1419702734 31106.7871
0215 1419705078 31109.4238
0216 1419707421 31191.2812
0217 1419709765 31155.9531
0218 1419712109 31278.0156
0219 1419714453 31298.9590
0220 1419716796 31314.8320
0221 1419719140 31287.7812
0222 1419721484 31181.6699
0223 1419723828 31181.9844
0224 1419726171 31232.4023
0225 1419728515 31326.4980
0226 1419730859 31196.9766
0227 1419733203 31183.1133
0228 1419735546 31214.7266
0229 1419737890 31352.1738
0230 1419740234 31248.2109
0231 1419742578 31186.5977
0232 1419744921 31264.5410
0233 1419747265 31209.1816
0234 1419749609 31179.8203
0235 1419751953 31155.1484
0236 1419754296 31254.7734
0237 1419756640 31152.1328
0238 1419758984 31158.4492
0239 1419761328 31211.8652
0240 1419763671 31081.3438
0241 1419766015 30959.7422
0242 1419768359 31040.6309
0243 1419770703 31073.5195
0244 1419773046 31031.9043
0245 1419775390 30990.9160
0246 1419777734 30967.2285
0247 1419780078 30845.7695
0248 1419782421 30876.3516
0249 1419784765 30957.9395
0250 1419787109 30906.4629
0251 1419789453 30872.6758
0252 1419791796 30875.9668
0253 1419794140 30786.1172
0254 1419796484 30732.0312
0255 1419798828 30790.5898
0256 1419801171 30809.9434
0257 1419803515 30749.9258
0258 1419805859 30688.9414
0259 1419808203 30601.7812
0260 1419810546 30559.9785
0261 1419812890 30563.1387
0262 1419815234 30574.0508
0263 1419817578 30491.4902
0264 1419819921 30482.0391
0265 1419822265 30589.6699
0266 1419824609 30447.2500
0267 1419826953 30443.2812
0268 1419829296 30490.7656
0269 1419831640 30421.2539
0270 1419833984 30499.6621
0271 1419836328 30375.4492
0272 1419838671 30313.2559
0273 1419841015 30321.5488
0274 1419843359 30316.0586
0275 1419845703 30375.5547
0276 1419848046 30303.7500
0277 1419850390 30156.2734
0278 1419852734 30157.9238
0279 1419855078 30118.1523
0280 1419857421 30211.3516
0281 1419859765 30076.8125
0282 1419862109 30044.3125
0283 1419864453 30146.6680
0284 1419866796 29998.9570
0285 1419869140 30068.7148
0286 1419871484 29995.1191
0287 1419873828 29971.6953
0288 1419876171 29916.0996
0289 1419878515 30034.2090
0290 1419880859 29881.0684
0291 1419883203 29847.6641
0292 1419885546 29872.2559
0293 1419887890 29784.6055
0294 1419890234 29844.6445
0295 1419892578 29886.0742
0296 1419894921 29801.6660
0297 1419897265 29660.1680
0298 1419899609 29696.8516
0299 1419901953 29657.0078
0300 1419904296 29670.0312
0301 1419906640 29617.8320
0302 1419908984 29553.9414
0303 1419911328 29705.0859
0304 1419913671 29540.3809
0305 1419916015 29586.6758
0306 1419918359 29541.5254
0307 1419920703 29521.0059
0308 1419923046 29522.2949
0309 1419925390 29578.7773
0310 1419927734 29536.1777
0311 1419930078 29480.3379
0312 1419932421 29403.9355
0313 1419934765 29450.5234
0314 1419937109 29528.5605
0315 1419939453 29427.5625
0316 1419941796 29547.6855
0317 1419944140 29485.3164
0318 1419946484 29391.5391
0319 1419948828 29340.6172
0320 1419951171 29355.9316
0321 1419953515 29368.7031
0322 1419955859 29366.4629
0323 1419958203 29472.7285
0324 1419960546 29418.6621
0325 1419962890 29464.4531
0326 1419965234 29428.6465
0327 1419967578 29501.3496
0328 1419969921 29350.5293
0329 1419972265 29334.8398
0330 1419974609 29327.1855
0331 1419976953 29431.6055
0332 1419979296 29282.1934
0333 1419981640 29334.1113
0334 1419983984 29454.0996
0335 1419986328 29368.2480
0336 1419988671 29407.6074
0337 1419991015 29481.6094
0338 1419993359 29230.1270
0339 1419995703 29278.8711
0340 1419998046 29384.3320
0341 1420000390 29467.3184
0342 1420002734 29359.3398
0343 1420005078 29499.3398
0344 1420007421 29332.9258
0345 1420009765 29369.9082
0346 1420012109 29460.7773
0347 1420014453 29339.0059
0348 1420016796 29400.0469
0349 1420019140 29503.2227
0350 1420021484 29470.5000
0351 1420023828 29409.9668
0352 1420026171 29420.5723
0353 1420028515 29518.7500
0354 1420030859 29615.0684
0355 1420033203 29656.6855
0356 1420035546 29577.4570
0357 1420037890 29550.8809
0358 1420040234 29622.0195
0359 1420042578 29684.4609
0360 1420044921 29613.1426
0361 1420047265 29686.8652
0362 1420049609 29656.2461
0363 1420051953 29742.8145
0364 1420054296 29682.9258
0365 1420056640 29740.5840
0366 1420058984 29762.0586
0367 1420061328 29687.6680
0368 1420063671 29845.9805
0369 1420066015 29874.4922
0370 1420068359 29895.6289
0371 1420070703 30023.0391
0372 1420073046 29978.3203
0373 1420075390 29929.6152
0374 1420077734 30083.9727
0375 1420080078 30078.8184
0376 1420082421 30015.5391
0377 1420084765 30003.2773
0378 1420087109 30038.5273
0379 1420089453 30210.3027
0380 1420091796 30181.1367
0381 1420094140 30236.2520
0382 1420096484 30181.4609
0383 1420098828 30270.8887
0384 1420101171 30486.3496
0385 1420103515 30429.2012
0386 1420105859 30320.5879
0387 1420108203 30333.4336
0388 1420110546 30453.8125
0389 1420112890 30483.7090
0390 1420115234 30503.5996
0391 1420117578 30490.0918
0392 1420119921 30602.4961
0393 1420122265 30519.6543
0394 1420124609 30666.5410
0395 1420126953 30773.5801
0396 1420129296 30716.5078
0397 1420131640 30786.8613
0398 1420133984 30923.4180
0399 1420136328 30923.1777
0400 1420138671 30799.6055
0401 1420141015 30896.0391
0402 1420143359 30967.3242
0403 1420145703 31062.0410
0404 1420148046 31117.8594
0405 1420150390 31274.0703
0406 1420152734 31141.7832
0407 1420155078 31353.1523
0408 1420157421 31186.9160
0409 1420159765 31280.7988
0410 1420162109 31263.3574
0411 1420164453 31383.0645
0412 1420166796 31404.7812
0413 1420169140 31492.2051
0414 1420171484 31554.1582
0415 1420173828 31632.7070
0416 1420176171 31587.8223
0417 1420178515 31635.6992
0418 1420180859 31714.3984
0419 1420183203 31748.0430
0420 1420185546 31870.9414
0421 1420187890 31895.6953
0422 1420190234 32001.2891
0423 1420192578 31994.4297
0424 1420194921 32068.0957
0425 1420197265 32036.3633
0426 1420199609 32169.3848
0427 1420201953 32126.7207
0428 1420204296 32226.8203
0429 1420206640 32337.0879
0430 1420208984 32348.7285
0431 1420211328 32323.1699
0432 1420213671 32404.4375
0433 1420216015 32386.6777
0434 1420218359 32541.3320
0435 1420220703 32625.4707
0436 1420223046 32684.1035
0437 1420225390 32844.2148
0438 1420227734 32778.3750
0439 1420230078 32741.9570
0440 1420232421 32960.9648
0441 1420234765 32890.7930
0442 1420237109 32939.2539
0443 1420239453 33200.2578
0444 1420241796 33149.9102
0445 1420244140 33268.7891
0446 1420246484 33404.7852
0447 1420248828 33502.2812
0448 1420251171 33528.0742
0449 1420253515 33627.4297
0450 1420255859 33514.9102
0451 1420258203 33679.3008
0452 1420260546 33764.3086
0453 1420262890 33901.2812
0454 1420265234 33940.5820
0455 1420267578 34015.1875
0456 1420269921 34092.4648
0457 1420272265 34240.8477
0458 1420274609 34229.6055
0459 1420276953 34343.6836
0460 1420279296 34486.0273
0461 1420281640 34518.3164
0462 1420283984 34672.4180
0463 1420286328 34751.7930
0464 1420288671 34926.7773
0465 1420291015 34981.0234
0466 1420293359 34977.3086
0467 1420295703 35130.5312
0468 1420298046 35283.7500
0469 1420300390 35288.6836
0470 1420302734 35285.3945
0471 1420305078 35564.7109
0472 1420307421 35654.1133
0473 1420309765 35688.1797
0474 1420312109 35686.4961
0475 1420314453 35857.6602
0476 1420316796 35905.0742
0477 1420319140 36077.9102
0478 1420321484 36045.1328
0479 1420323828 36026.8398
0480 1420326171 36160.1250
0481 1420328515 36126.9766
0482 1420330859 36291.5508
0483 1420333203 36378.3203
0484 1420335546 36330.2383
0485 1420337890 36389.6875
0486 1420340234 36336.6914
0487 1420342578 36164.9297
0488 1420344921 36113.1289
0489 1420347265 36142.0977
0490 1420349609 36160.6758
0491 1420351953 35892.7734
0492 1420354296 35971.3281
0493 1420356640 35905.7539
0494 1420358984 35776.4766
0495 1420361328 35620.7266
0496 1420363671 35592.3398
0497 1420366015 35492.6133
0498 1420368359 35315.9102
0499 1420370703 35275.4492
0500 1420373046 35289.8438
0501 1420375390 35220.6641
0502 1420377734 35105.2969
0503 1420380078 35048.4375
0504 1420382421 35062.4922
0505 1420384765 34996.5078
0506 1420387109 35004.9883
0507 1420389453 34945.4492
0508 1420391796 34874.4766
0509 1420394140 34838.5859
0510 1420396484 34988.1211
0511 1420398828 34899.2617
0512 1420401171 34719.0703
0513 1420403515 34734.2344
0514 1420405859 34858.5156
0515 1420408203 34787.2305
0516 1420410546 34685.0078
0517 1420412890 34811.0078
0518 1420415234 34656.1953
0519 1420417578 34645.7461
0520 1420419921 34532.5430
0521 1420422265 34609.2500
0522 1420424609 34661.3203
0523 1420426953 34573.9727
0524 1420429296 34461.6641
0525 1420431640 34517.4922
0526 1420433984 34582.6914
0527 1420436328 34513.4648
0528 1420438671 34524.3594
0529 1420441015 34454.6875
0530 1420443359 34480.8594
0531 1420445703 34531.2773
0532 1420448046 34453.1562
0533 1420450390 34430.1172
0534 1420452734 34423.7461
0535 1420455078 34433.0273
0536 1420457421 34267.3789
0537 1420459765 34443.7773
0538 1420462109 34504.4414
0539 1420464453 34347.1992
0540 1420466796 34286.6289
0541 1420469140 34122.3633
0542 1420471484 34158.6367
0543 1420473828 34197.5195
0544 1420476171 34306.1211
0545 1420478515 34159.3633
0546 1420480859 34080.6562
0547 1420483203 34135.4805
0548 1420485546 34087.5820
0549 1420487890 34071.7891
0550 1420490234 34015.9805
0551 1420492578 33893.6523
0552 1420494921 34002.7734
0553 1420497265 33876.9180
0554 1420499609 33866.4609
0555 1420501953 33854.8242
0556 1420504296 33849.8594
0557 1420506640 33901.1523
0558 1420508984 33819.8281
0559 1420511328 33578.3125
0560 1420513671 33683.4805
0561 1420516015 33793.0508
0562 1420518359 33578.3203
0563 1420520703 33601.5977
0564 1420523046 33573.2031
0565 1420525390 33562.5742
0566 1420527734 33572.9297
0567 1420530078 33519.5312
0568 1420532421 33466.6484
0569 1420534765 33463.1953
0570 1420537109 33333.9453
0571 1420539453 33278.1172
0572 1420541796 33216.3828
0573 1420544140 33125.5820
0574 1420546484 33085.7578
0575 1420548828 33135.6289
0576 1420551171 33082.7344
0577 1420553515 33160.8281
0578 1420555859 33097.3242
0579 1420558203 33003.8281
0580 1420560546 32992.6836
0581 1420562890 32986.3398
0582 1420565234 32879.1797
0583 1420567578 32916.4961
0584 1420569921 32789.3945
0585 1420572265 32681.5293
0586 1420574609 32700.0996
0587 1420576953 32696.4355
0588 1420579296 32626.2969
0589 1420581640 32588.3945
0590 1420583984 32598.6738
0591 1420586328 32436.1094
0592 1420588671 32454.4453
0593 1420591015 32519.3340
0594 1420593359 32380.4414
0595 1420595703 32412.0332
0596 1420598046 32273.1680
0597 1420600390 32198.7422
0598 1420602734 32204.2344
0599 1420605078 32247.0977
0600 1420607421 32083.5820
0601 1420609765 32074.8164
0602 1420612109 32067.0781
0603 1420614453 32006.5898
0604 1420616796 32022.2832
0605 1420619140 32009.3496
0606 1420621484 31894.4551
0607 1420623828 31768.0820
0608 1420626171 31809.1328
0609 1420628515 31748.0312
0610 1420630859 31673.9453
0611 1420633203 31675.8789
0612 1420635546 31722.7578
0613 1420637890 31462.7363
0614 1420640234 31512.7949
0615 1420642578 31630.0918
0616 1420644921 31481.9688
0617 1420647265 31459.9961
0618 1420649609 31398.3887
0619 1420651953 31354.1992
0620 1420654296 31373.1621
0621 1420656640 31285.2988
0622 1420658984 31376.1484
0623 1420661328 31228.2246
0624 1420663671 31224.5469
0625 1420666015 31172.7500
0626 1420668359 31004.6465
0627 1420670703 30996.5215
0628 1420673046 31037.5566
0629 1420675390 30973.3027
0630 1420677734 31008.9316
0631 1420680078 30938.0312
0632 1420682421 30887.8066
0633 1420684765 30883.1699
0634 1420687109 30795.1641
0635 1420689453 30830.7773
0636 1420691796 30921.8438
0637 1420694140 30713.8516
0638 1420696484 30718.5352
0639 1420698828 30584.8242
0640 1420701171 30688.6992
0641 1420703515 30643.5605
0642 1420705859 30584.8359
0643 1420708203 30527.0273
0644 1420710546 30483.9121
0645 1420712890 30506.8359
0646 1420715234 30472.1504
0647 1420717578 30401.5000
0648 1420719921 30443.7168
0649 1420722265 30495.0156
0650 1420724609 30263.0879
0651 1420726953 30383.0859
0652 1420729296 30376.0234
0653 1420731640 30386.6055
0654 1420733984 30210.5059
0655 1420736328 30248.1973
0656 1420738671 30182.0137
0657 1420741015 30303.4902
0658 1420743359 30266.9648
0659 1420745703 30141.1055
0660 1420748046 30170.5977
0661 1420750390 30158.4336
0662 1420752734 30045.3301
0663 1420755078 30092.1973
0664 1420757421 30138.9414
0665 1420759765 30210.8633
0666 1420762109 30121.1680
0667 1420764453 30092.2090
0668 1420766796 30059.5820
0669 1420769140 30111.0625
0670 1420771484 30039.1934
0671 1420773828 29968.1250
0672 1420776171 30091.8301
0673 1420778515 30014.7793
0674 1420780859 30122.3945
0675 1420783203 30046.8418
0676 1420785546 29963.0625
0677 1420787890 29982.0703
0678 1420790234 29988.1602
0679 1420792578 29993.5469
0680 1420794921 30054.5703
0681 1420797265 29895.0215
0682 1420799609 29954.8789
0683 1420801953 29917.7812
0684 1420804296 29978.4668
0685 1420806640 30011.3711
0686 1420808984 30015.8789
0687 1420811328 30015.7793
0688 1420813671 29857.6602
0689 1420816015 30012.5156
0690 1420818359 29836.2520
0691 1420820703 29989.9902
0692 1420823046 30008.4902
0693 1420825390 29976.6387
0694 1420827734 29841.2031
0695 1420830078 29958.1016
0696 1420832421 29920.9121
0697 1420834765 30057.2090
0698 1420837109 30000.2617
0699 1420839453 29982.4629
0700 1420841796 30062.1641
0701 1420844140 30114.7988
0702 1420846484 30051.3457
0703 1420848828 30088.0547
0704 1420851171 30246.6445
0705 1420853515 30229.9961
0706 1420855859 30088.0625
0707 1420858203 30229.2305
0708 1420860546 30184.5703
0709 1420862890 30246.5840
0710 1420865234 30272.9492
0711 1420867578 30305.2012
0712 1420869921 30313.6406
0713 1420872265 30298.3633
0714 1420874609 30290.3203
0715 1420876953 30322.8359
0716 1420879296 30396.6484
0717 1420881640 30314.6426
0718 1420883984 30440.3750
0719 1420886328 30389.1836
0720 1420888671 30405.7246
0721 1420891015 30554.6602
0722 1420893359 30633.3359
0723 1420895703 30601.9590
0724 1420898046 30650.8828
0725 1420900390 30647.5352
0726 1420902734 30596.6836
0727 1420905078 30712.2754
0728 1420907421 30797.7812
0729 1420909765 30752.6738
0730 1420912109 30790.7031
0731 1420914453 30895.0527
0732 1420916796 30876.7070
0733 1420919140 30782.9512
0734 1420921484 30857.7441
0735 1420923828 30875.6309
0736 1420926171 31192.8848
0737 1420928515 31237.6016
0738 1420930859 31034.7383
0739 1420933203 31124.6016
0740 1420935546 31076.8633
0741 1420937890 31046.0801
0742 1420940234 31219.4648
0743 1420942578 31283.3184
0744 1420944921 31207.0879
0745 1420947265 31278.5391
0746 1420949609 31411.4277
0747 1420951953 31382.0742
0748 1420954296 31442.7812
0749 1420956640 31509.1523
0750 1420958984 31594.8066
0751 1420961328 31562.6465
0752 1420963671 31598.6797
0753 1420966015 31672.4551
0754 1420968359 31685.0156
0755 1420970703 31707.5879
0756 1420973046 31720.8770
0757 1420975390 31801.6133
0758 1420977734 31953.9844
0759 1420980078 31872.9141
0760 1420982421 31962.0449
0761 1420984765 32147.1953
0762 1420987109 32183.6953
0763 1420989453 32114.1328
0764 1420991796 32137.8105
0765 1420994140 32059.4805
0766 1420996484 32058.9902
0767 1420998828 32183.8555
0768 1421001171 32143.5332
0769 1421003515 32269.6328
0770 1421005859 32336.0156
0771 1421008203 32299.0352
0772 1421010546 32373.2754
0773 1421012890 32390.1152
0774 1421015234 32553.0918
0775 1421017578 32689.9219
0776 1421019921 32696.2656
0777 1421022265 32616.3066
0778 1421024609 32785.9414
0779 1421026953 32576.5059
0780 1421029296 32631.3594
0781 1421031640 32767.8320
0782 1421033984 32919.9883
0783 1421036328 32793.0430
0784 1421038671 32928.2422
0785 1421041015 32939.7109
0786 1421043359 32944.7891
0787 1421045703 32884.3008
0788 1421048046 33056.5352
0789 1421050390 33114.7070
0790 1421052734 33134.3516
0791 1421055078 33126.0742
0792 1421057421 33005.4570
0793 1421059765 33157.0391
0794 1421062109 33136.0273
0795 1421064453 33319.5703
0796 1421066796 33345.6992
0797 1421069140 33193.4766
0798 1421071484 33214.5352
0799 1421073828 33314.6445
0800 1421076171 33387.0977
0801 1421078515 33541.8633
0802 1421080859 33512.6992
0803 1421083203 33471.1016
0804 1421085546 33486.9023
0805 1421087890 33569.0430
0806 1421090234 33543.4883
0807 1421092578 33548.7695
0808 1421094921 33544.5508
0809 1421097265 33779.0742
0810 1421099609 33688.7734
0811 1421101953 33754.2422
0812 1421104296 33657.5547
0813 1421106640 33579.4102
0814 1421108984 33608.1328
0815 1421111328 33599.0508
0816 1421113671 33646.4961
0817 1421116015 33682.8438
0818 1421118359 33692.5430
0819 1421120703 33574.6523
0820 1421123046 33572.2344
0821 1421125390 33604.3086
0822 1421127734 33722.6992
0823 1421130078 33628.0781
0824 1421132421 33646.3828
0825 1421134765 33596.4531
0826 1421137109 33662.3125
0827 1421139453 33624.7891
0828 1421141796 33558.2539
0829 1421144140 33566.9648
0830 1421146484 33512.7578
0831 1421148828 33551.0625
0832 1421151171 33510.5781
0833 1421153515 33429.9453
0834 1421155859 33425.1484
0835 1421158203 33515.5195
0836 1421160546 33530.7500
0837 1421162890 33468.6914
0838 1421165234 33299.3125
0839 1421167578 33475.1914
0840 1421169921 33364.1328
0841 1421172265 33406.0352
0842 1421174609 33230.5625
0843 1421176953 33162.6836
0844 1421179296 33219.5156
0845 1421181640 33121.7773
0846 1421183984 33234.6719
0847 1421186328 33058.0742
0848 1421188671 33031.0703
0849 1421191015 33002.8438
0850 1421193359 33047.0352
0851 1421195703 32994.2422
0852 1421198046 32774.0234
0853 1421200390 32707.2793
0854 1421202734 32628.2051
0855 1421205078 32835.7578
0856 1421207421 32705.8047
0857 1421209765 32635.3789
0858 1421212109 32453.9395
0859 1421214453 32415.7188
0860 1421216796 32316.4043
0861 1421219140 32217.5625
0862 1421221484 32171.2012
0863 1421223828 32089.0625
0864 1421226171 32074.5195
0865 1421228515 31904.5312
0866 1421230859 31899.9473
0867 1421233203 31833.4902
0868 1421235546 31770.3633
0869 1421237890 31585.6797
0870 1421240234 31497.6230
0871 1421242578 31496.6289
0872 1421244921 31362.9492
0873 1421247265 31203.1152
0874 1421249609 31200.4395
0875 1421251953 31158.3594
0876 1421254296 31034.3320
0877 1421256640 30950.1875
0878 1421258984 30677.2871
0879 1421261328 30721.6484
0880 1421263671 30494.8574
0881 1421266015 30404.5742
0882 1421268359 30242.9414
0883 1421270703 30277.8379
0884 1421273046 30164.6602
0885 1421275390 29924.5234
0886 1421277734 29937.2285
0887 1421280078 29717.8223
0888 1421282421 29625.4766
0889 1421284765 29429.0020
0890 1421287109 29356.7441
0891 1421289453 29162.2051
0892 1421291796 29206.8828
0893 1421294140 28986.2246
0894 1421296484 28802.1562
0895 1421298828 28680.7246
0896 1421301171 28582.6113
0897 1421303515 28292.5430
0898 1421305859 28256.5488
0899 1421308203 28126.2949
0900 1421310546 28002.8867
0901 1421312890 27790.2734
0902 1421315234 27752.9922
0903 1421317578 27515.0059
0904 1421319921 27416.9844
0905 1421322265 27290.1191
0906 1421324609 26945.6680
0907 1421326953 26949.5020
0908 1421329296 26795.1152
0909 1421331640 26686.8945
0910 1421333984 26460.9609
0911 1421336328 26267.2441
0912 1421338671 26214.7656
0913 1421341015 26057.6719
0914 1421343359 25782.3340
0915 1421345703 25495.1777
0916 1421348046 25582.7461
0917 1421350390 25410.9043
0918 1421352734 25223.9707
0919 1421355078 24966.6621
0920 1421357421 24836.0742
0921 1421359765 24686.2168
0922 1421362109 24574.8145
0923 1421364453 24352.4258
0924 1421366796 24089.6094
0925 1421369140 23938.1230
0926 1421371484 23732.3496
0927 1421373828 23663.3477
0928 1421376171 23452.8145
0929 1421378515 23210.8789
0930 1421380859 23093.5898
0931 1421383203 22987.6953
0932 1421385546 22811.6660
0933 1421387890 22510.9902
0934 1421390234 22442.9590
0935 1421392578 22154.1992
0936 1421394921 21990.5527
0937 1421397265 21834.2305
0938 1421399609 21682.8359
0939 1421401953 21522.5527
0940 1421404296 21436.1992
0941 1421406640 21244.5684
0942 1421408984 20947.3418
0943 1421411328 20816.4668
0944 1421413671 20585.5625
0945 1421416015 20448.4531
0946 1421418359 20346.8281
0947 1421420703 20090.0000
0948 1421423046 19912.8457
0949 1421425390 19794.4414
0950 1421427734 19635.5078
0951 1421430078 19459.7344
0952 1421432421 19196.2656
0953 1421434765 19001.1816
0954 1421437109 18929.6699
0955 1421439453 18660.4473
0956 1421441796 18573.3555
0957 1421444140 18332.4453
0958 1421446484 18133.4980
0959 1421448828 17972.6094
0960 1421451171 17824.2109
0961 1421453515 17662.7031
0962 1421455859 17428.5352
0963 1421458203 17234.9766
0964 1421460546 17148.3242
0965 1421462890 16957.8633
0966 1421465234 16843.1133
0967 1421467578 16673.5195
0968 1421469921 16496.7988
0969 1421472265 16283.5479
0970 1421474609 16188.5078
0971 1421476953 16042.5410
0972 1421479296 15859.6475
0973 1421481640 15668.4219
0974 1421483984 15546.2861
0975 1421486328 15382.1982
0976 1421488671 15256.4883
0977 1421491015 15125.9199
0978 1421493359 14926.7266
0979 1421495703 14761.0732
0980 1421498046 14604.5332
0981 1421500390 14498.0947
0982 1421502734 14311.1201
0983 1421505078 14209.8193
0984 1421507421 14066.1211
0985 1421509765 13914.6348
0986 1421512109 13775.7314
0987 1421514453 13699.0762
0988 1421516796 13571.9346
0989 1421519140 13423.4248
0990 1421521484 13249.6826
0991 1421523828 13177.3828
0992 1421526171 13063.8203
0993 1421528515 12905.5996
0994 1421530859 12792.5986
0995 1421533203 12654.6592
0996 1421535546 12592.3105
0997 1421537890 12472.5498
0998 1421540234 12310.3164
0999 1421542578 12196.5820
1000 1421544921 12128.7803
1001 1421547265 12034.3887
1002 1421549609 11882.0166
1003 1421551953 11784.5840
1004 1421554296 11703.3379
1005 1421556640 11608.6230
1006 1421558984 11460.4883
1007 1421561328 11434.5000
1008 1421563671 11386.0664
1009 1421566015 11218.8877
1010 1421568359 11159.4258
1011 1421570703 11085.3418
1012 1421573046 10991.8984
1013 1421575390 10877.3535
1014 1421577734 10848.0352
1015 1421580078 10736.1914
1016 1421582421 10661.6426
1017 1421584765 10619.5996
1018 1421587109 10555.1738
1019 1421589453 10456.7354
1020 1421591796 10396.7686
1021 1421594140 10351.8418
1022 1421596484 10270.1719
1023 1421598828 10203.1729
