# File: 20-10-09T234003.ast
# NOTEA     = Foam Pyramid Horn
# NOTEB     = Spectral Integration
# OBSERVER  = Schultz
# DEVICE    = rtl=0,bias=0
# DATADIR   = ../data/
# SITE      = Foam Pyramid Horn
# CITY      = Chicago
# REGION    = Illinois
# COUNTRY   = US
# TELTYPE   = Foam Pyramid Horn
# FRAME     = TOPO
# GAIN1     = 49.6
# GAIN2     = 49.6
# GAIN3     = 49.6
# GAIN4     = 0.0
# Count     = 490000
# CenterFreq= 1420400000.0
# Bandwidth = 2400000.0
# Duration  = 305.840955
# DeltaX    = 5859.375
# TSYS      = 200.0
# TRX       = 100.0
# TRMS      = 2.0
# TINT      = 1.0
# KPERC     = 100.0
# GAINFACT  = 1.0
# BUNIT     = Counts
# NCHAN     = 1024
# NSPEC     = 1
# NTIME     = 0
# NSAMPLES  = 0
# EPEAK     = 4.10875183718
# ERMS      = 0.995973393526
# EMJD      = 58568.808999981004 
# REFCHAN   = 512.0
# REFSAMPL  = 256.0
# NAVE      = 700
# NMEDIAN   = 1024
# Fft_rate  = 5000
# UTC       = 2020-10-09 23:40:03.798642
# SECONDS   =       0.0000000000 
# LST       = 19:05:42.630
# AZ        = 180.0
# EL        = 40.0
# TELLON    = -87:37:48.000
# TELLAT    = +41:52:01.000
# RA        = 19:03:28.450
# DEC       = -08:13:00.100
# GALLON    = 26:57:12.90
# GALLAT    = -06:23:47.20
# ALT_SUN   = -04:15:38.5
# AZ_SUN    = +265:24:08.5
# ETAA      = 0.8
# ETAB      = 0.99
# POLANGLE  = 0.0
# TELSIZEAM = 1.0
# TELSIZEBM = 1.0
# AST_VERS  = 05.01
0000 1419201171 10165.5449
0001 1419203515 10160.5771
0002 1419205859 10111.8154
0003 1419208203 10062.7578
0004 1419210546 9965.2217
0005 1419212890 9950.0039
0006 1419215234 9890.6025
0007 1419217578 9856.4199
0008 1419219921 9831.8262
0009 1419222265 9793.2559
0010 1419224609 9765.6104
0011 1419226953 9727.8457
0012 1419229296 9684.7793
0013 1419231640 9690.8047
0014 1419233984 9622.3848
0015 1419236328 9575.5693
0016 1419238671 9592.8408
0017 1419241015 9589.2441
0018 1419243359 9542.9619
0019 1419245703 9519.3398
0020 1419248046 9453.5547
0021 1419250390 9466.6582
0022 1419252734 9481.8691
0023 1419255078 9489.7158
0024 1419257421 9499.7539
0025 1419259765 9470.0000
0026 1419262109 9467.8506
0027 1419264453 9477.2910
0028 1419266796 9505.0889
0029 1419269140 9496.9229
0030 1419271484 9533.7725
0031 1419273828 9545.9219
0032 1419276171 9575.6611
0033 1419278515 9581.3232
0034 1419280859 9608.6992
0035 1419283203 9671.9951
0036 1419285546 9711.9414
0037 1419287890 9738.2812
0038 1419290234 9826.0000
0039 1419292578 9865.4980
0040 1419294921 9869.0166
0041 1419297265 9951.5186
0042 1419299609 10076.0381
0043 1419301953 10137.9531
0044 1419304296 10162.8584
0045 1419306640 10244.7031
0046 1419308984 10335.1914
0047 1419311328 10402.8447
0048 1419313671 10562.2148
0049 1419316015 10645.2344
0050 1419318359 10739.1855
0051 1419320703 10809.4355
0052 1419323046 10945.5439
0053 1419325390 11036.1338
0054 1419327734 11204.3203
0055 1419330078 11339.6826
0056 1419332421 11485.5498
0057 1419334765 11546.9531
0058 1419337109 11693.8613
0059 1419339453 11844.6201
0060 1419341796 12004.3301
0061 1419344140 12167.1729
0062 1419346484 12285.0967
0063 1419348828 12419.0283
0064 1419351171 12566.1572
0065 1419353515 12711.6240
0066 1419355859 12984.3877
0067 1419358203 13088.3496
0068 1419360546 13285.7891
0069 1419362890 13420.6865
0070 1419365234 13627.3213
0071 1419367578 13720.3896
0072 1419369921 13951.4434
0073 1419372265 14041.8955
0074 1419374609 14199.0996
0075 1419376953 14442.6299
0076 1419379296 14638.8018
0077 1419381640 14786.9355
0078 1419383984 14965.2881
0079 1419386328 15171.3457
0080 1419388671 15392.4512
0081 1419391015 15712.9072
0082 1419393359 15710.7490
0083 1419395703 15928.1162
0084 1419398046 16072.8047
0085 1419400390 16190.1113
0086 1419402734 16406.8828
0087 1419405078 16585.2969
0088 1419407421 16823.5352
0089 1419409765 17021.4492
0090 1419412109 17262.1289
0091 1419414453 17364.0488
0092 1419416796 17511.7422
0093 1419419140 17787.7793
0094 1419421484 17935.7305
0095 1419423828 18088.5742
0096 1419426171 18222.4629
0097 1419428515 18454.3945
0098 1419430859 18735.7461
0099 1419433203 18914.2480
0100 1419435546 19120.8184
0101 1419437890 19295.6543
0102 1419440234 19383.0820
0103 1419442578 19573.0332
0104 1419444921 19818.8672
0105 1419447265 19951.8359
0106 1419449609 20174.5527
0107 1419451953 20218.6504
0108 1419454296 20510.2754
0109 1419456640 20739.4375
0110 1419458984 20832.1055
0111 1419461328 21037.9746
0112 1419463671 21257.3125
0113 1419466015 21371.7285
0114 1419468359 21554.4668
0115 1419470703 21706.5625
0116 1419473046 21960.3164
0117 1419475390 22100.8809
0118 1419477734 22300.5762
0119 1419480078 22484.6172
0120 1419482421 22624.7832
0121 1419484765 22720.9375
0122 1419487109 22861.2109
0123 1419489453 23144.3945
0124 1419491796 23317.0527
0125 1419494140 23450.9609
0126 1419496484 23585.4824
0127 1419498828 23755.3887
0128 1419501171 23946.7227
0129 1419503515 24118.8711
0130 1419505859 24218.8281
0131 1419508203 24457.2793
0132 1419510546 24560.8594
0133 1419512890 24675.4785
0134 1419515234 24894.8711
0135 1419517578 25005.1504
0136 1419519921 25095.5039
0137 1419522265 25327.9297
0138 1419524609 25389.1875
0139 1419526953 25559.1895
0140 1419529296 25685.2676
0141 1419531640 25858.8594
0142 1419533984 25962.5176
0143 1419536328 26096.7852
0144 1419538671 26241.1895
0145 1419541015 26532.7598
0146 1419543359 26510.9492
0147 1419545703 26621.9102
0148 1419548046 26886.3887
0149 1419550390 26945.0312
0150 1419552734 27099.9609
0151 1419555078 27177.2812
0152 1419557421 27313.3008
0153 1419559765 27429.7637
0154 1419562109 27527.3223
0155 1419564453 27611.0508
0156 1419566796 27877.3516
0157 1419569140 27774.8301
0158 1419571484 27918.0977
0159 1419573828 28022.7441
0160 1419576171 28127.5176
0161 1419578515 28358.2559
0162 1419580859 28367.6133
0163 1419583203 28418.8145
0164 1419585546 28583.0625
0165 1419587890 28596.9551
0166 1419590234 28788.7852
0167 1419592578 28937.8418
0168 1419594921 28968.8730
0169 1419597265 29061.0430
0170 1419599609 29123.4355
0171 1419601953 29320.0352
0172 1419604296 29345.9590
0173 1419606640 29480.4629
0174 1419608984 29464.8965
0175 1419611328 29682.7773
0176 1419613671 29748.5234
0177 1419616015 29721.3496
0178 1419618359 29766.8906
0179 1419620703 29940.3340
0180 1419623046 30015.8105
0181 1419625390 30135.9043
0182 1419627734 30149.9941
0183 1419630078 30083.4004
0184 1419632421 30229.2656
0185 1419634765 30366.0898
0186 1419637109 30375.1367
0187 1419639453 30388.0352
0188 1419641796 30363.1309
0189 1419644140 30448.2090
0190 1419646484 30471.8789
0191 1419648828 30626.2793
0192 1419651171 30642.2383
0193 1419653515 30793.7090
0194 1419655859 30774.5332
0195 1419658203 30798.5996
0196 1419660546 30835.1133
0197 1419662890 30852.5547
0198 1419665234 30803.3633
0199 1419667578 30912.6992
0200 1419669921 30876.8164
0201 1419672265 30880.3379
0202 1419674609 30931.4863
0203 1419676953 30860.8105
0204 1419679296 31011.0156
0205 1419681640 31133.5391
0206 1419683984 31294.6992
0207 1419686328 31160.6094
0208 1419688671 31187.7539
0209 1419691015 31191.1875
0210 1419693359 31245.4590
0211 1419695703 31314.6250
0212 1419698046 31306.7461
0213 1419700390 31240.1797
0214 1419702734 31321.0254
0215 1419705078 31307.9785
0216 1419707421 31308.7402
0217 1419709765 31305.7969
0218 1419712109 31356.5781
0219 1419714453 31254.4336
0220 1419716796 31285.3457
0221 1419719140 31348.4316
0222 1419721484 31178.7891
0223 1419723828 31246.2227
0224 1419726171 31316.8379
0225 1419728515 31294.2832
0226 1419730859 31336.8340
0227 1419733203 31184.9395
0228 1419735546 31197.6504
0229 1419737890 31303.0215
0230 1419740234 31319.5488
0231 1419742578 31326.1113
0232 1419744921 31346.9180
0233 1419747265 31284.4043
0234 1419749609 31230.1680
0235 1419751953 31270.5527
0236 1419754296 31222.9277
0237 1419756640 31277.3867
0238 1419758984 31181.4297
0239 1419761328 31181.3516
0240 1419763671 31237.4180
0241 1419766015 31141.4785
0242 1419768359 31151.4688
0243 1419770703 31163.4863
0244 1419773046 31108.2520
0245 1419775390 31104.1523
0246 1419777734 31091.7266
0247 1419780078 31170.3281
0248 1419782421 31046.6191
0249 1419784765 31034.5078
0250 1419787109 30886.9238
0251 1419789453 30901.8105
0252 1419791796 30970.6582
0253 1419794140 30978.5293
0254 1419796484 30930.0508
0255 1419798828 30937.3809
0256 1419801171 30966.5352
0257 1419803515 31000.9609
0258 1419805859 30894.2793
0259 1419808203 30835.0117
0260 1419810546 30914.3223
0261 1419812890 30903.3027
0262 1419815234 30798.0039
0263 1419817578 30873.6348
0264 1419819921 30688.3008
0265 1419822265 30657.0703
0266 1419824609 30673.4883
0267 1419826953 30654.5840
0268 1419829296 30693.0234
0269 1419831640 30604.2871
0270 1419833984 30557.1504
0271 1419836328 30599.7168
0272 1419838671 30661.9746
0273 1419841015 30538.9414
0274 1419843359 30549.1484
0275 1419845703 30537.5957
0276 1419848046 30558.0898
0277 1419850390 30490.8105
0278 1419852734 30372.9512
0279 1419855078 30490.3887
0280 1419857421 30567.7871
0281 1419859765 30437.6992
0282 1419862109 30379.2441
0283 1419864453 30396.1367
0284 1419866796 30244.1387
0285 1419869140 30287.7012
0286 1419871484 30276.8652
0287 1419873828 30254.7949
0288 1419876171 30323.3184
0289 1419878515 30167.9023
0290 1419880859 30253.7773
0291 1419883203 30181.3594
0292 1419885546 30084.4531
0293 1419887890 30134.7773
0294 1419890234 30195.3477
0295 1419892578 30208.5625
0296 1419894921 30109.2266
0297 1419897265 30105.6445
0298 1419899609 30004.0234
0299 1419901953 29950.9824
0300 1419904296 30025.5508
0301 1419906640 30027.5039
0302 1419908984 29935.7266
0303 1419911328 29976.6465
0304 1419913671 30032.7734
0305 1419916015 29927.5195
0306 1419918359 30014.5918
0307 1419920703 29911.6289
0308 1419923046 30007.5020
0309 1419925390 29945.2148
0310 1419927734 29938.8984
0311 1419930078 29886.8848
0312 1419932421 29870.1191
0313 1419934765 29921.5371
0314 1419937109 29899.9551
0315 1419939453 29878.5137
0316 1419941796 29897.6855
0317 1419944140 29899.7539
0318 1419946484 29884.1172
0319 1419948828 29801.6797
0320 1419951171 29768.2676
0321 1419953515 29746.3145
0322 1419955859 29795.3008
0323 1419958203 29835.0918
0324 1419960546 29866.7949
0325 1419962890 29808.6133
0326 1419965234 29767.5547
0327 1419967578 29804.4121
0328 1419969921 29733.5117
0329 1419972265 29805.1914
0330 1419974609 29877.6582
0331 1419976953 29902.9883
0332 1419979296 29858.5566
0333 1419981640 29880.0742
0334 1419983984 29842.0469
0335 1419986328 29814.8691
0336 1419988671 29797.1094
0337 1419991015 29829.4961
0338 1419993359 29987.5234
0339 1419995703 29945.5156
0340 1419998046 29823.4023
0341 1420000390 29906.7500
0342 1420002734 29904.7129
0343 1420005078 29994.2598
0344 1420007421 29862.6230
0345 1420009765 29952.2363
0346 1420012109 29842.4492
0347 1420014453 29898.5430
0348 1420016796 29976.7402
0349 1420019140 30011.1211
0350 1420021484 30022.7637
0351 1420023828 30108.2266
0352 1420026171 30228.7188
0353 1420028515 30109.8438
0354 1420030859 30332.9043
0355 1420033203 30328.1699
0356 1420035546 30189.3105
0357 1420037890 30235.4688
0358 1420040234 30320.8477
0359 1420042578 30310.6758
0360 1420044921 30417.4082
0361 1420047265 30363.4824
0362 1420049609 30356.5762
0363 1420051953 30402.4180
0364 1420054296 30557.5879
0365 1420056640 30504.0977
0366 1420058984 30522.9414
0367 1420061328 30597.3926
0368 1420063671 30693.9805
0369 1420066015 30619.9453
0370 1420068359 30720.3066
0371 1420070703 30831.9160
0372 1420073046 30717.2539
0373 1420075390 30902.2891
0374 1420077734 30726.6309
0375 1420080078 30847.8828
0376 1420082421 30967.4043
0377 1420084765 31045.4180
0378 1420087109 31025.7715
0379 1420089453 30937.3574
0380 1420091796 30943.5078
0381 1420094140 30987.3711
0382 1420096484 31147.2891
0383 1420098828 31277.3848
0384 1420101171 31199.3965
0385 1420103515 31318.4453
0386 1420105859 31411.1797
0387 1420108203 31374.5488
0388 1420110546 31477.5684
0389 1420112890 31455.0039
0390 1420115234 31550.8418
0391 1420117578 31577.7539
0392 1420119921 31634.9512
0393 1420122265 31615.4316
0394 1420124609 31727.7988
0395 1420126953 31810.5488
0396 1420129296 31859.5645
0397 1420131640 31828.4062
0398 1420133984 31898.0254
0399 1420136328 31948.8555
0400 1420138671 31991.4043
0401 1420141015 31998.5977
0402 1420143359 32026.9551
0403 1420145703 32103.4551
0404 1420148046 32210.9922
0405 1420150390 32166.0234
0406 1420152734 32261.2031
0407 1420155078 32275.6758
0408 1420157421 32261.5020
0409 1420159765 32423.4238
0410 1420162109 32468.3633
0411 1420164453 32558.9961
0412 1420166796 32662.2305
0413 1420169140 32644.4727
0414 1420171484 32704.9766
0415 1420173828 32616.0000
0416 1420176171 32770.0430
0417 1420178515 32771.6094
0418 1420180859 32927.6211
0419 1420183203 33005.2188
0420 1420185546 32986.5000
0421 1420187890 33144.5547
0422 1420190234 33175.8984
0423 1420192578 33295.5664
0424 1420194921 33168.1094
0425 1420197265 33333.2695
0426 1420199609 33442.7773
0427 1420201953 33469.8867
0428 1420204296 33495.6367
0429 1420206640 33622.2266
0430 1420208984 33724.5820
0431 1420211328 33842.1484
0432 1420213671 33854.5352
0433 1420216015 33999.1562
0434 1420218359 34002.8828
0435 1420220703 34045.2695
0436 1420223046 34240.3672
0437 1420225390 34155.6562
0438 1420227734 34217.2734
0439 1420230078 34497.5898
0440 1420232421 34634.3125
0441 1420234765 34732.6836
0442 1420237109 34651.5195
0443 1420239453 34917.6562
0444 1420241796 34941.4102
0445 1420244140 35080.0859
0446 1420246484 35104.3164
0447 1420248828 35206.5391
0448 1420251171 35345.8516
0449 1420253515 35607.3789
0450 1420255859 35528.8594
0451 1420258203 35626.2812
0452 1420260546 35911.0156
0453 1420262890 35893.0859
0454 1420265234 35908.4102
0455 1420267578 36185.4688
0456 1420269921 36313.0977
0457 1420272265 36431.4766
0458 1420274609 36514.4883
0459 1420276953 36624.0078
0460 1420279296 36754.6328
0461 1420281640 36936.9336
0462 1420283984 36919.8867
0463 1420286328 37154.6797
0464 1420288671 37326.7656
0465 1420291015 37295.8789
0466 1420293359 37335.1758
0467 1420295703 37418.2422
0468 1420298046 37569.6758
0469 1420300390 37759.5547
0470 1420302734 37816.4609
0471 1420305078 38025.0547
0472 1420307421 38163.0898
0473 1420309765 38249.9141
0474 1420312109 38534.3945
0475 1420314453 38655.7852
0476 1420316796 38683.1641
0477 1420319140 38853.9609
0478 1420321484 39144.1406
0479 1420323828 39381.6289
0480 1420326171 39522.1367
0481 1420328515 39569.9492
0482 1420330859 39701.8438
0483 1420333203 39620.8320
0484 1420335546 39439.5430
0485 1420337890 39132.4883
0486 1420340234 38911.8281
0487 1420342578 38778.8594
0488 1420344921 38556.4688
0489 1420347265 37953.2656
0490 1420349609 37612.4609
0491 1420351953 37531.6016
0492 1420354296 37237.5508
0493 1420356640 36966.7188
0494 1420358984 36584.6211
0495 1420361328 36659.0039
0496 1420363671 36436.3281
0497 1420366015 36146.0898
0498 1420368359 36014.8633
0499 1420370703 36055.9102
0500 1420373046 35670.5898
0501 1420375390 35631.6992
0502 1420377734 35567.9258
0503 1420380078 35537.3633
0504 1420382421 35327.9023
0505 1420384765 35299.0586
0506 1420387109 35305.4570
0507 1420389453 35399.4414
0508 1420391796 35315.4453
0509 1420394140 35082.0625
0510 1420396484 35180.3711
0511 1420398828 35144.1641
0512 1420401171 34997.4258
0513 1420403515 35127.6953
0514 1420405859 35085.0781
0515 1420408203 35082.2969
0516 1420410546 35087.0156
0517 1420412890 34985.7773
0518 1420415234 34976.9922
0519 1420417578 35098.5547
0520 1420419921 35018.8203
0521 1420422265 34900.8047
0522 1420424609 34979.7305
0523 1420426953 34907.0820
0524 1420429296 34836.1445
0525 1420431640 34858.7031
0526 1420433984 34831.4922
0527 1420436328 34867.6094
0528 1420438671 34822.8789
0529 1420441015 34711.7578
0530 1420443359 34828.7148
0531 1420445703 34798.4648
0532 1420448046 34752.7344
0533 1420450390 34752.6016
0534 1420452734 34705.4453
0535 1420455078 34820.6836
0536 1420457421 34626.1836
0537 1420459765 34546.7422
0538 1420462109 34666.6641
0539 1420464453 34599.8359
0540 1420466796 34503.4844
0541 1420469140 34679.5039
0542 1420471484 34554.7695
0543 1420473828 34539.0820
0544 1420476171 34620.8438
0545 1420478515 34440.2930
0546 1420480859 34538.0312
0547 1420483203 34588.1875
0548 1420485546 34595.2539
0549 1420487890 34448.6797
0550 1420490234 34256.5820
0551 1420492578 34480.5625
0552 1420494921 34316.5078
0553 1420497265 34305.0078
0554 1420499609 34320.1836
0555 1420501953 34394.9844
0556 1420504296 34268.7578
0557 1420506640 34375.6094
0558 1420508984 34206.8242
0559 1420511328 34166.4258
0560 1420513671 34246.2500
0561 1420516015 34148.8594
0562 1420518359 33968.4297
0563 1420520703 34012.7656
0564 1420523046 33917.3203
0565 1420525390 34022.3242
0566 1420527734 33922.7344
0567 1420530078 33885.1641
0568 1420532421 33808.6797
0569 1420534765 33846.5117
0570 1420537109 33784.1445
0571 1420539453 33791.5430
0572 1420541796 33822.2383
0573 1420544140 33686.1992
0574 1420546484 33491.9414
0575 1420548828 33442.6992
0576 1420551171 33450.7148
0577 1420553515 33495.6992
0578 1420555859 33416.9766
0579 1420558203 33482.9141
0580 1420560546 33348.3555
0581 1420562890 33211.3711
0582 1420565234 33204.1211
0583 1420567578 33163.7617
0584 1420569921 33101.0938
0585 1420572265 33044.6992
0586 1420574609 33065.4961
0587 1420576953 32979.2109
0588 1420579296 32869.3203
0589 1420581640 32863.1602
0590 1420583984 32762.2402
0591 1420586328 32885.8242
0592 1420588671 32856.5078
0593 1420591015 32797.9531
0594 1420593359 32707.7207
0595 1420595703 32727.6699
0596 1420598046 32727.7188
0597 1420600390 32504.6543
0598 1420602734 32503.1270
0599 1420605078 32491.5879
0600 1420607421 32362.4980
0601 1420609765 32377.5195
0602 1420612109 32431.7129
0603 1420614453 32379.0059
0604 1420616796 32319.3457
0605 1420619140 32276.6934
0606 1420621484 32295.2559
0607 1420623828 32146.0527
0608 1420626171 32113.4160
0609 1420628515 32165.9512
0610 1420630859 32122.6738
0611 1420633203 32020.8281
0612 1420635546 31970.1973
0613 1420637890 31800.2949
0614 1420640234 31780.8457
0615 1420642578 31716.8867
0616 1420644921 31819.2324
0617 1420647265 31802.0781
0618 1420649609 31741.7617
0619 1420651953 31667.2188
0620 1420654296 31605.5176
0621 1420656640 31476.7051
0622 1420658984 31476.0605
0623 1420661328 31588.9160
0624 1420663671 31426.3457
0625 1420666015 31315.3887
0626 1420668359 31202.1758
0627 1420670703 31278.0801
0628 1420673046 31257.3125
0629 1420675390 31077.9434
0630 1420677734 31183.6465
0631 1420680078 31199.9141
0632 1420682421 30978.7012
0633 1420684765 31040.7656
0634 1420687109 30994.4492
0635 1420689453 30963.1133
0636 1420691796 30923.9609
0637 1420694140 30933.4551
0638 1420696484 30948.5527
0639 1420698828 30808.3691
0640 1420701171 30840.1855
0641 1420703515 30819.6621
0642 1420705859 30728.6738
0643 1420708203 30733.9824
0644 1420710546 30795.0176
0645 1420712890 30775.5117
0646 1420715234 30620.8066
0647 1420717578 30675.9688
0648 1420719921 30623.8008
0649 1420722265 30482.7168
0650 1420724609 30531.6523
0651 1420726953 30530.8906
0652 1420729296 30490.0801
0653 1420731640 30469.7578
0654 1420733984 30421.5898
0655 1420736328 30393.4922
0656 1420738671 30424.6211
0657 1420741015 30404.3555
0658 1420743359 30307.8203
0659 1420745703 30419.1660
0660 1420748046 30413.0234
0661 1420750390 30281.3262
0662 1420752734 30220.4180
0663 1420755078 30273.9453
0664 1420757421 30240.3672
0665 1420759765 30164.1230
0666 1420762109 30241.4531
0667 1420764453 30079.3945
0668 1420766796 30135.1016
0669 1420769140 30116.2285
0670 1420771484 30094.6016
0671 1420773828 30062.7012
0672 1420776171 30074.1914
0673 1420778515 30166.6504
0674 1420780859 30234.5840
0675 1420783203 29941.0098
0676 1420785546 30059.1191
0677 1420787890 29965.0586
0678 1420790234 30020.7910
0679 1420792578 30025.0176
0680 1420794921 30051.8789
0681 1420797265 30007.0059
0682 1420799609 30019.1035
0683 1420801953 30047.8613
0684 1420804296 29909.4180
0685 1420806640 30025.6680
0686 1420808984 29946.9863
0687 1420811328 29996.7188
0688 1420813671 30000.9570
0689 1420816015 30069.0703
0690 1420818359 30105.9609
0691 1420820703 30229.2383
0692 1420823046 30133.4180
0693 1420825390 29901.3477
0694 1420827734 30091.5098
0695 1420830078 30090.4395
0696 1420832421 30184.3809
0697 1420834765 30125.8008
0698 1420837109 30241.4766
0699 1420839453 30064.8145
0700 1420841796 30140.0840
0701 1420844140 30147.1074
0702 1420846484 30188.7520
0703 1420848828 30237.6465
0704 1420851171 30165.4805
0705 1420853515 30211.5469
0706 1420855859 30280.4961
0707 1420858203 30166.0977
0708 1420860546 30250.7363
0709 1420862890 30311.1836
0710 1420865234 30355.3926
0711 1420867578 30347.9531
0712 1420869921 30331.0801
0713 1420872265 30309.4238
0714 1420874609 30365.1582
0715 1420876953 30369.3164
0716 1420879296 30444.1387
0717 1420881640 30484.0254
0718 1420883984 30459.4141
0719 1420886328 30580.8105
0720 1420888671 30466.9844
0721 1420891015 30538.1367
0722 1420893359 30555.0742
0723 1420895703 30588.9336
0724 1420898046 30621.4492
0725 1420900390 30616.7188
0726 1420902734 30716.2168
0727 1420905078 30753.3125
0728 1420907421 30733.0664
0729 1420909765 30836.8008
0730 1420912109 30851.0508
0731 1420914453 31020.3887
0732 1420916796 31013.7598
0733 1420919140 31025.6270
0734 1420921484 31016.0859
0735 1420923828 30974.8125
0736 1420926171 31077.3438
0737 1420928515 31151.1445
0738 1420930859 31223.7656
0739 1420933203 31133.4785
0740 1420935546 31208.7285
0741 1420937890 31182.1973
0742 1420940234 31386.8418
0743 1420942578 31310.5117
0744 1420944921 31378.8340
0745 1420947265 31464.2676
0746 1420949609 31437.4727
0747 1420951953 31484.1387
0748 1420954296 31407.5234
0749 1420956640 31570.1172
0750 1420958984 31629.4023
0751 1420961328 31626.0332
0752 1420963671 31674.4043
0753 1420966015 31570.6094
0754 1420968359 31845.6094
0755 1420970703 31875.9961
0756 1420973046 31906.1914
0757 1420975390 31894.4902
0758 1420977734 31936.9609
0759 1420980078 32010.6680
0760 1420982421 31978.1758
0761 1420984765 31989.3848
0762 1420987109 32279.2969
0763 1420989453 32232.2207
0764 1420991796 32065.8535
0765 1420994140 32417.5723
0766 1420996484 32206.3066
0767 1420998828 32486.0918
0768 1421001171 32447.1641
0769 1421003515 32458.9668
0770 1421005859 32320.8750
0771 1421008203 32431.6055
0772 1421010546 32601.1797
0773 1421012890 32540.2559
0774 1421015234 32647.7012
0775 1421017578 32648.6367
0776 1421019921 32751.0176
0777 1421022265 32794.9648
0778 1421024609 32631.7539
0779 1421026953 32699.1602
0780 1421029296 32843.2070
0781 1421031640 32988.0156
0782 1421033984 33004.2500
0783 1421036328 32903.2070
0784 1421038671 33006.0547
0785 1421041015 33028.0430
0786 1421043359 33059.2031
0787 1421045703 33179.6289
0788 1421048046 33049.4102
0789 1421050390 33284.6992
0790 1421052734 33171.4844
0791 1421055078 33143.4648
0792 1421057421 33299.1797
0793 1421059765 33323.8047
0794 1421062109 33329.8164
0795 1421064453 33284.8750
0796 1421066796 33322.8125
0797 1421069140 33350.5469
0798 1421071484 33496.8711
0799 1421073828 33408.4844
0800 1421076171 33525.4336
0801 1421078515 33557.2969
0802 1421080859 33615.5859
0803 1421083203 33524.4961
0804 1421085546 33533.8867
0805 1421087890 33487.0508
0806 1421090234 33663.7266
0807 1421092578 33635.3008
0808 1421094921 33760.1055
0809 1421097265 33734.7188
0810 1421099609 33730.7422
0811 1421101953 33723.3633
0812 1421104296 33694.3516
0813 1421106640 33634.5977
0814 1421108984 33686.6680
0815 1421111328 33691.7422
0816 1421113671 33611.5195
0817 1421116015 33740.8477
0818 1421118359 33763.7344
0819 1421120703 33866.9336
0820 1421123046 33981.3281
0821 1421125390 33826.1445
0822 1421127734 33819.0625
0823 1421130078 33650.4297
0824 1421132421 33805.8516
0825 1421134765 33765.6250
0826 1421137109 33536.0625
0827 1421139453 33804.6211
0828 1421141796 33754.7305
0829 1421144140 33699.8945
0830 1421146484 33649.5664
0831 1421148828 33574.3711
0832 1421151171 33598.7617
0833 1421153515 33584.9844
0834 1421155859 33498.5703
0835 1421158203 33566.5039
0836 1421160546 33606.1055
0837 1421162890 33627.4570
0838 1421165234 33549.0391
0839 1421167578 33415.9023
0840 1421169921 33494.6758
0841 1421172265 33461.1836
0842 1421174609 33464.5234
0843 1421176953 33439.7148
0844 1421179296 33392.3633
0845 1421181640 33237.3906
0846 1421183984 33246.8516
0847 1421186328 33213.9453
0848 1421188671 33145.5195
0849 1421191015 33107.4844
0850 1421193359 33048.1406
0851 1421195703 33024.7344
0852 1421198046 32892.0078
0853 1421200390 32936.5742
0854 1421202734 32977.1836
0855 1421205078 32750.6992
0856 1421207421 32659.5430
0857 1421209765 32695.3164
0858 1421212109 32504.5918
0859 1421214453 32501.9160
0860 1421216796 32441.5469
0861 1421219140 32372.0176
0862 1421221484 32187.7031
0863 1421223828 32141.9141
0864 1421226171 32183.2852
0865 1421228515 31925.4648
0866 1421230859 31979.9082
0867 1421233203 31785.7793
0868 1421235546 31824.3438
0869 1421237890 31663.7031
0870 1421240234 31643.6855
0871 1421242578 31576.5215
0872 1421244921 31435.1953
0873 1421247265 31373.8027
0874 1421249609 31261.5918
0875 1421251953 31264.7324
0876 1421254296 31126.5059
0877 1421256640 30928.2656
0878 1421258984 30794.9316
0879 1421261328 30702.0234
0880 1421263671 30624.2637
0881 1421266015 30690.4336
0882 1421268359 30498.5039
0883 1421270703 30292.6055
0884 1421273046 30227.7773
0885 1421275390 30062.3535
0886 1421277734 29897.4492
0887 1421280078 29847.8027
0888 1421282421 29766.7520
0889 1421284765 29664.4043
0890 1421287109 29407.8418
0891 1421289453 29383.5488
0892 1421291796 29310.0273
0893 1421294140 29105.4062
0894 1421296484 28916.6895
0895 1421298828 28839.7129
0896 1421301171 28711.8535
0897 1421303515 28676.4180
0898 1421305859 28377.4102
0899 1421308203 28220.1875
0900 1421310546 28098.5684
0901 1421312890 27956.0098
0902 1421315234 27874.5664
0903 1421317578 27742.4727
0904 1421319921 27472.7793
0905 1421322265 27347.3887
0906 1421324609 27184.7441
0907 1421326953 27100.1465
0908 1421329296 26832.6035
0909 1421331640 26781.9453
0910 1421333984 26546.8730
0911 1421336328 26338.6133
0912 1421338671 26326.2773
0913 1421341015 26168.8262
0914 1421343359 25944.5059
0915 1421345703 25696.7480
0916 1421348046 25607.3242
0917 1421350390 25472.6582
0918 1421352734 25247.8867
0919 1421355078 25097.4004
0920 1421357421 25023.1875
0921 1421359765 24695.6426
0922 1421362109 24513.0996
0923 1421364453 24389.8809
0924 1421366796 24201.8613
0925 1421369140 24084.0488
0926 1421371484 23902.4551
0927 1421373828 23731.4043
0928 1421376171 23615.5977
0929 1421378515 23407.5625
0930 1421380859 23331.5254
0931 1421383203 23040.1738
0932 1421385546 22862.6523
0933 1421387890 22700.7793
0934 1421390234 22625.5859
0935 1421392578 22372.7637
0936 1421394921 22140.2695
0937 1421397265 21904.3984
0938 1421399609 21830.5293
0939 1421401953 21637.2207
0940 1421404296 21436.4395
0941 1421406640 21182.7344
0942 1421408984 21166.6582
0943 1421411328 20904.4883
0944 1421413671 20767.2559
0945 1421416015 20668.1484
0946 1421418359 20362.1914
0947 1421420703 20186.6973
0948 1421423046 19992.1973
0949 1421425390 19802.6426
0950 1421427734 19691.5176
0951 1421430078 19481.1309
0952 1421432421 19270.5820
0953 1421434765 19139.6172
0954 1421437109 19003.2500
0955 1421439453 18790.3457
0956 1421441796 18635.2969
0957 1421444140 18439.3281
0958 1421446484 18309.8672
0959 1421448828 18178.8691
0960 1421451171 17902.0332
0961 1421453515 17726.6172
0962 1421455859 17573.4316
0963 1421458203 17421.8750
0964 1421460546 17243.5215
0965 1421462890 17032.7012
0966 1421465234 16899.9473
0967 1421467578 16772.4785
0968 1421469921 16611.9766
0969 1421472265 16429.6992
0970 1421474609 16296.1816
0971 1421476953 16091.1289
0972 1421479296 15987.1387
0973 1421481640 15771.7129
0974 1421483984 15612.5283
0975 1421486328 15455.1846
0976 1421488671 15276.9082
0977 1421491015 15149.2969
0978 1421493359 14939.7959
0979 1421495703 14767.0137
0980 1421498046 14681.8164
0981 1421500390 14559.0322
0982 1421502734 14377.4062
0983 1421505078 14286.3604
0984 1421507421 14154.8828
0985 1421509765 14043.9111
0986 1421512109 13866.3311
0987 1421514453 13755.9834
0988 1421516796 13618.9648
0989 1421519140 13498.2754
0990 1421521484 13376.7139
0991 1421523828 13220.7402
0992 1421526171 13080.2109
0993 1421528515 12972.7158
0994 1421530859 12829.1260
0995 1421533203 12720.8027
0996 1421535546 12610.6416
0997 1421537890 12478.7686
0998 1421540234 12402.1885
0999 1421542578 12293.5684
1000 1421544921 12190.7842
1001 1421547265 12043.5303
1002 1421549609 11935.7891
1003 1421551953 11859.9004
1004 1421554296 11773.7549
1005 1421556640 11664.7959
1006 1421558984 11576.1514
1007 1421561328 11454.1484
1008 1421563671 11416.5947
1009 1421566015 11287.4990
1010 1421568359 11205.2432
1011 1421570703 11108.8555
1012 1421573046 11030.6455
1013 1421575390 10943.2041
1014 1421577734 10871.5713
1015 1421580078 10802.1445
1016 1421582421 10730.3965
1017 1421584765 10672.6221
1018 1421587109 10615.4727
1019 1421589453 10531.9297
1020 1421591796 10492.1602
1021 1421594140 10408.3877
1022 1421596484 10280.3525
1023 1421598828 10237.3828
