# File: 20-10-10T011654.ast
# NOTEA     = Foam Pyramid Horn
# NOTEB     = Spectral Integration
# OBSERVER  = Schultz
# DEVICE    = rtl=0,bias=0
# DATADIR   = ../data/
# SITE      = Foam Pyramid Horn
# CITY      = Chicago
# REGION    = Illinois
# COUNTRY   = US
# TELTYPE   = Foam Pyramid Horn
# FRAME     = TOPO
# GAIN1     = 49.6
# GAIN2     = 49.6
# GAIN3     = 49.6
# GAIN4     = 0.0
# Count     = 490000
# CenterFreq= 1420400000.0
# Bandwidth = 2400000.0
# Duration  = 305.833118
# DeltaX    = 5859.375
# TSYS      = 200.0
# TRX       = 100.0
# TRMS      = 2.0
# TINT      = 1.0
# KPERC     = 100.0
# GAINFACT  = 1.0
# BUNIT     = Counts
# NCHAN     = 1024
# NSPEC     = 1
# NTIME     = 0
# NSAMPLES  = 0
# EPEAK     = 4.10875183718
# ERMS      = 0.995973393526
# EMJD      = 58568.808999981004 
# REFCHAN   = 512.0
# REFSAMPL  = 256.0
# NAVE      = 700
# NMEDIAN   = 1024
# Fft_rate  = 5000
# UTC       = 2020-10-10 01:16:54.662343
# SECONDS   =       0.0000000000 
# LST       = 20:42:49.410
# AZ        = 180.0
# EL        = 40.0
# TELLON    = -87:37:48.000
# TELLAT    = +41:52:01.000
# RA        = 20:40:36.240
# DEC       = -08:18:06.300
# GALLON    = 38:01:32.10
# GALLAT    = -28:00:38.70
# ALT_SUN   = -22:54:50.7
# AZ_SUN    = +281:58:04.9
# ETAA      = 0.8
# ETAB      = 0.99
# POLANGLE  = 0.0
# TELSIZEAM = 1.0
# TELSIZEBM = 1.0
# AST_VERS  = 05.01
0000 1419201171 10186.0947
0001 1419203515 10126.3232
0002 1419205859 10132.7295
0003 1419208203 10078.8330
0004 1419210546 9989.7754
0005 1419212890 9982.6562
0006 1419215234 9892.9355
0007 1419217578 9842.1963
0008 1419219921 9829.8809
0009 1419222265 9777.3887
0010 1419224609 9740.4268
0011 1419226953 9736.8291
0012 1419229296 9690.4951
0013 1419231640 9705.3115
0014 1419233984 9629.5312
0015 1419236328 9598.5723
0016 1419238671 9599.2217
0017 1419241015 9592.1553
0018 1419243359 9562.4570
0019 1419245703 9567.0586
0020 1419248046 9513.9287
0021 1419250390 9542.9336
0022 1419252734 9515.1162
0023 1419255078 9495.1260
0024 1419257421 9486.2695
0025 1419259765 9520.4521
0026 1419262109 9530.7500
0027 1419264453 9543.5820
0028 1419266796 9555.7686
0029 1419269140 9551.7080
0030 1419271484 9540.0635
0031 1419273828 9580.4326
0032 1419276171 9604.3027
0033 1419278515 9642.2988
0034 1419280859 9654.3994
0035 1419283203 9691.7959
0036 1419285546 9725.1660
0037 1419287890 9764.8633
0038 1419290234 9828.8926
0039 1419292578 9836.2109
0040 1419294921 9920.1436
0041 1419297265 9990.0547
0042 1419299609 10054.2832
0043 1419301953 10136.3154
0044 1419304296 10223.8350
0045 1419306640 10276.7930
0046 1419308984 10392.5332
0047 1419311328 10422.6602
0048 1419313671 10569.0430
0049 1419316015 10626.7578
0050 1419318359 10765.6650
0051 1419320703 10893.3838
0052 1419323046 10986.1670
0053 1419325390 11085.3965
0054 1419327734 11228.8945
0055 1419330078 11357.9434
0056 1419332421 11505.4287
0057 1419334765 11604.4561
0058 1419337109 11764.3418
0059 1419339453 11861.6572
0060 1419341796 11940.2080
0061 1419344140 12143.8604
0062 1419346484 12285.3135
0063 1419348828 12449.9492
0064 1419351171 12621.1699
0065 1419353515 12776.2686
0066 1419355859 12924.0537
0067 1419358203 13095.1367
0068 1419360546 13296.5820
0069 1419362890 13462.5078
0070 1419365234 13590.2217
0071 1419367578 13754.1064
0072 1419369921 13973.9170
0073 1419372265 14130.1484
0074 1419374609 14307.6982
0075 1419376953 14438.5645
0076 1419379296 14636.5439
0077 1419381640 14844.4053
0078 1419383984 14992.2393
0079 1419386328 15159.3838
0080 1419388671 15479.7012
0081 1419391015 15762.2090
0082 1419393359 15761.8389
0083 1419395703 15924.1572
0084 1419398046 16020.7070
0085 1419400390 16344.6377
0086 1419402734 16509.7852
0087 1419405078 16664.1758
0088 1419407421 16868.8613
0089 1419409765 17042.6914
0090 1419412109 17235.6211
0091 1419414453 17425.2871
0092 1419416796 17618.1816
0093 1419419140 17818.3340
0094 1419421484 17908.9570
0095 1419423828 18119.0137
0096 1419426171 18344.9863
0097 1419428515 18572.8594
0098 1419430859 18686.9336
0099 1419433203 18867.5156
0100 1419435546 19079.6738
0101 1419437890 19240.2012
0102 1419440234 19477.3340
0103 1419442578 19679.8301
0104 1419444921 19824.6133
0105 1419447265 19996.0000
0106 1419449609 20157.9863
0107 1419451953 20370.4023
0108 1419454296 20543.4375
0109 1419456640 20683.5332
0110 1419458984 21010.3945
0111 1419461328 21152.0547
0112 1419463671 21300.8750
0113 1419466015 21460.0117
0114 1419468359 21591.0703
0115 1419470703 21837.1602
0116 1419473046 21999.9688
0117 1419475390 22094.6230
0118 1419477734 22354.6387
0119 1419480078 22501.2441
0120 1419482421 22653.7695
0121 1419484765 22754.3848
0122 1419487109 23012.2266
0123 1419489453 23173.3086
0124 1419491796 23298.3652
0125 1419494140 23551.0508
0126 1419496484 23654.4688
0127 1419498828 23856.4902
0128 1419501171 24009.9277
0129 1419503515 24182.5723
0130 1419505859 24241.2188
0131 1419508203 24479.4199
0132 1419510546 24636.3516
0133 1419512890 24748.1582
0134 1419515234 24858.2266
0135 1419517578 25030.5469
0136 1419519921 25294.0820
0137 1419522265 25317.4023
0138 1419524609 25541.5859
0139 1419526953 25658.7988
0140 1419529296 25764.0820
0141 1419531640 25860.3516
0142 1419533984 26074.4355
0143 1419536328 26236.2734
0144 1419538671 26420.1406
0145 1419541015 26489.8926
0146 1419543359 26561.9141
0147 1419545703 26808.4180
0148 1419548046 26857.9648
0149 1419550390 27071.3203
0150 1419552734 27125.7715
0151 1419555078 27167.4414
0152 1419557421 27374.5664
0153 1419559765 27552.4082
0154 1419562109 27722.1270
0155 1419564453 27726.8379
0156 1419566796 27846.0430
0157 1419569140 27997.1875
0158 1419571484 28046.9785
0159 1419573828 28156.4961
0160 1419576171 28223.0195
0161 1419578515 28386.5332
0162 1419580859 28518.5156
0163 1419583203 28515.0371
0164 1419585546 28650.7383
0165 1419587890 28737.6523
0166 1419590234 28888.8145
0167 1419592578 28996.1875
0168 1419594921 29110.7656
0169 1419597265 29237.5586
0170 1419599609 29309.4941
0171 1419601953 29343.7578
0172 1419604296 29376.9180
0173 1419606640 29445.1953
0174 1419608984 29608.0488
0175 1419611328 29636.6074
0176 1419613671 29722.4355
0177 1419616015 29848.1543
0178 1419618359 29834.6055
0179 1419620703 29815.2461
0180 1419623046 29988.7188
0181 1419625390 30120.3457
0182 1419627734 30115.6699
0183 1419630078 30211.8848
0184 1419632421 30225.6055
0185 1419634765 30281.5664
0186 1419637109 30316.0195
0187 1419639453 30369.6191
0188 1419641796 30486.0820
0189 1419644140 30505.9961
0190 1419646484 30525.0137
0191 1419648828 30556.6133
0192 1419651171 30601.0645
0193 1419653515 30708.0078
0194 1419655859 30848.8848
0195 1419658203 30900.3418
0196 1419660546 30895.7285
0197 1419662890 30902.3438
0198 1419665234 30972.5449
0199 1419667578 30820.4180
0200 1419669921 30952.9219
0201 1419672265 31085.8652
0202 1419674609 30991.7441
0203 1419676953 31078.2461
0204 1419679296 31201.4941
0205 1419681640 31179.1758
0206 1419683984 31154.0625
0207 1419686328 31146.5234
0208 1419688671 31222.9121
0209 1419691015 31138.1543
0210 1419693359 31135.7656
0211 1419695703 31243.7930
0212 1419698046 31255.1855
0213 1419700390 31225.3145
0214 1419702734 31251.3633
0215 1419705078 31388.2129
0216 1419707421 31331.4121
0217 1419709765 31320.1406
0218 1419712109 31277.5469
0219 1419714453 31238.1680
0220 1419716796 31308.8555
0221 1419719140 31220.5059
0222 1419721484 31271.8965
0223 1419723828 31281.5664
0224 1419726171 31287.8418
0225 1419728515 31439.7012
0226 1419730859 31286.3691
0227 1419733203 31251.3555
0228 1419735546 31266.3203
0229 1419737890 31324.1309
0230 1419740234 31343.6191
0231 1419742578 31307.9414
0232 1419744921 31253.7031
0233 1419747265 31256.9219
0234 1419749609 31249.5469
0235 1419751953 31285.8457
0236 1419754296 31258.4922
0237 1419756640 31199.1309
0238 1419758984 31219.0449
0239 1419761328 31331.1387
0240 1419763671 31217.0020
0241 1419766015 31096.2031
0242 1419768359 31157.6973
0243 1419770703 31192.4141
0244 1419773046 31118.7012
0245 1419775390 31090.1191
0246 1419777734 31078.2266
0247 1419780078 31076.9648
0248 1419782421 31056.8516
0249 1419784765 31034.5684
0250 1419787109 31022.5117
0251 1419789453 30933.0801
0252 1419791796 30884.9219
0253 1419794140 30985.8906
0254 1419796484 31008.7559
0255 1419798828 30806.3848
0256 1419801171 30883.8477
0257 1419803515 30802.5430
0258 1419805859 30881.1660
0259 1419808203 30774.6367
0260 1419810546 30787.9434
0261 1419812890 30724.7578
0262 1419815234 30565.8984
0263 1419817578 30690.0449
0264 1419819921 30660.5566
0265 1419822265 30636.8828
0266 1419824609 30526.8535
0267 1419826953 30585.5039
0268 1419829296 30539.7930
0269 1419831640 30647.3965
0270 1419833984 30548.1953
0271 1419836328 30503.1270
0272 1419838671 30508.3535
0273 1419841015 30341.1270
0274 1419843359 30381.3594
0275 1419845703 30249.9863
0276 1419848046 30290.9531
0277 1419850390 30363.3359
0278 1419852734 30349.8047
0279 1419855078 30254.2656
0280 1419857421 30273.2461
0281 1419859765 30185.0098
0282 1419862109 30308.3887
0283 1419864453 30238.3398
0284 1419866796 30152.4492
0285 1419869140 30104.6406
0286 1419871484 30161.8281
0287 1419873828 30099.1992
0288 1419876171 29917.5625
0289 1419878515 29958.6484
0290 1419880859 30065.9766
0291 1419883203 30032.7129
0292 1419885546 29997.3887
0293 1419887890 29854.3652
0294 1419890234 29863.9316
0295 1419892578 29923.6543
0296 1419894921 29947.4219
0297 1419897265 29742.6328
0298 1419899609 29832.2012
0299 1419901953 29696.7520
0300 1419904296 29677.8047
0301 1419906640 29791.4297
0302 1419908984 29839.1738
0303 1419911328 29707.0684
0304 1419913671 29726.0801
0305 1419916015 29791.3535
0306 1419918359 29680.4336
0307 1419920703 29653.3594
0308 1419923046 29585.2305
0309 1419925390 29650.6133
0310 1419927734 29564.7812
0311 1419930078 29638.7324
0312 1419932421 29588.9844
0313 1419934765 29612.9453
0314 1419937109 29505.4648
0315 1419939453 29567.9492
0316 1419941796 29558.8359
0317 1419944140 29516.7363
0318 1419946484 29539.9434
0319 1419948828 29562.3691
0320 1419951171 29510.4062
0321 1419953515 29474.7891
0322 1419955859 29553.6504
0323 1419958203 29431.8555
0324 1419960546 29551.5684
0325 1419962890 29377.3203
0326 1419965234 29389.7168
0327 1419967578 29563.4004
0328 1419969921 29421.4727
0329 1419972265 29438.1465
0330 1419974609 29452.7734
0331 1419976953 29599.2441
0332 1419979296 29552.5059
0333 1419981640 29527.9043
0334 1419983984 29447.2012
0335 1419986328 29388.7891
0336 1419988671 29522.3379
0337 1419991015 29458.2305
0338 1419993359 29451.5977
0339 1419995703 29423.3457
0340 1419998046 29469.7207
0341 1420000390 29498.8691
0342 1420002734 29668.7070
0343 1420005078 29582.0469
0344 1420007421 29488.8457
0345 1420009765 29508.0059
0346 1420012109 29437.2578
0347 1420014453 29471.3887
0348 1420016796 29611.7109
0349 1420019140 29604.1055
0350 1420021484 29562.7109
0351 1420023828 29673.7266
0352 1420026171 29608.9766
0353 1420028515 29713.7480
0354 1420030859 29782.8750
0355 1420033203 29728.2480
0356 1420035546 29666.5645
0357 1420037890 29754.7832
0358 1420040234 29751.0137
0359 1420042578 29704.0312
0360 1420044921 29795.6621
0361 1420047265 29735.8516
0362 1420049609 29832.4551
0363 1420051953 29775.0762
0364 1420054296 29787.5508
0365 1420056640 29940.9648
0366 1420058984 29895.7168
0367 1420061328 29972.4141
0368 1420063671 30028.9902
0369 1420066015 29914.1523
0370 1420068359 29989.0977
0371 1420070703 30034.6875
0372 1420073046 30130.4668
0373 1420075390 30005.7324
0374 1420077734 30012.3086
0375 1420080078 30095.9199
0376 1420082421 30179.7773
0377 1420084765 30145.4609
0378 1420087109 30235.6035
0379 1420089453 30303.9551
0380 1420091796 30359.9453
0381 1420094140 30302.5527
0382 1420096484 30366.3418
0383 1420098828 30271.5918
0384 1420101171 30347.7930
0385 1420103515 30443.4414
0386 1420105859 30431.3145
0387 1420108203 30470.5391
0388 1420110546 30592.7188
0389 1420112890 30518.9160
0390 1420115234 30648.5449
0391 1420117578 30696.3145
0392 1420119921 30653.9648
0393 1420122265 30827.4316
0394 1420124609 30708.1113
0395 1420126953 30764.3730
0396 1420129296 30812.0430
0397 1420131640 30930.5859
0398 1420133984 31020.5977
0399 1420136328 30983.1543
0400 1420138671 31021.1914
0401 1420141015 31086.0352
0402 1420143359 31214.9336
0403 1420145703 31128.1543
0404 1420148046 31205.8613
0405 1420150390 31240.0879
0406 1420152734 31295.0605
0407 1420155078 31275.1660
0408 1420157421 31427.0840
0409 1420159765 31426.4766
0410 1420162109 31558.2383
0411 1420164453 31536.5273
0412 1420166796 31617.3105
0413 1420169140 31554.8086
0414 1420171484 31691.3574
0415 1420173828 31686.7930
0416 1420176171 31729.5879
0417 1420178515 31767.4336
0418 1420180859 31899.6191
0419 1420183203 31872.8066
0420 1420185546 31907.8047
0421 1420187890 31897.1582
0422 1420190234 31901.1523
0423 1420192578 32085.1602
0424 1420194921 32160.5996
0425 1420197265 32174.3770
0426 1420199609 32194.0176
0427 1420201953 32284.5586
0428 1420204296 32401.7246
0429 1420206640 32337.9082
0430 1420208984 32370.5801
0431 1420211328 32523.2188
0432 1420213671 32547.8926
0433 1420216015 32576.0977
0434 1420218359 32700.4648
0435 1420220703 32774.5117
0436 1420223046 32783.2578
0437 1420225390 32808.6211
0438 1420227734 32850.4375
0439 1420230078 32900.4688
0440 1420232421 33040.1250
0441 1420234765 33158.3242
0442 1420237109 33130.2500
0443 1420239453 33063.4453
0444 1420241796 33222.9609
0445 1420244140 33219.9375
0446 1420246484 33295.0391
0447 1420248828 33555.7188
0448 1420251171 33478.0273
0449 1420253515 33564.4414
0450 1420255859 33637.8242
0451 1420258203 33611.5742
0452 1420260546 33706.1133
0453 1420262890 33880.4961
0454 1420265234 33907.2695
0455 1420267578 33889.8672
0456 1420269921 34243.0547
0457 1420272265 34235.5469
0458 1420274609 34337.2383
0459 1420276953 34442.3789
0460 1420279296 34494.3555
0461 1420281640 34411.6172
0462 1420283984 34685.0273
0463 1420286328 34793.8594
0464 1420288671 34853.9219
0465 1420291015 34995.9141
0466 1420293359 35072.2852
0467 1420295703 35043.8281
0468 1420298046 35277.0430
0469 1420300390 35208.1289
0470 1420302734 35344.9023
0471 1420305078 35517.2305
0472 1420307421 35712.9844
0473 1420309765 35766.9336
0474 1420312109 35666.9766
0475 1420314453 35667.9336
0476 1420316796 35783.5781
0477 1420319140 35936.2695
0478 1420321484 35870.0195
0479 1420323828 35897.0352
0480 1420326171 36144.3438
0481 1420328515 36245.1406
0482 1420330859 36252.2461
0483 1420333203 36354.2695
0484 1420335546 36454.7305
0485 1420337890 36358.9688
0486 1420340234 36271.6797
0487 1420342578 36222.5586
0488 1420344921 36220.4219
0489 1420347265 36182.9727
0490 1420349609 36092.2031
0491 1420351953 36041.8906
0492 1420354296 36076.8125
0493 1420356640 35942.6523
0494 1420358984 35956.5820
0495 1420361328 35699.1836
0496 1420363671 35704.8555
0497 1420366015 35647.0508
0498 1420368359 35568.1406
0499 1420370703 35374.8867
0500 1420373046 35304.9492
0501 1420375390 35291.6367
0502 1420377734 35199.8320
0503 1420380078 35194.7812
0504 1420382421 35276.4805
0505 1420384765 35252.2852
0506 1420387109 35091.8086
0507 1420389453 35061.7656
0508 1420391796 34991.8906
0509 1420394140 35034.8594
0510 1420396484 34992.1641
0511 1420398828 35039.9023
0512 1420401171 34941.0195
0513 1420403515 34915.3633
0514 1420405859 34979.5156
0515 1420408203 34794.0664
0516 1420410546 34833.6758
0517 1420412890 34807.2344
0518 1420415234 34781.6797
0519 1420417578 34868.4258
0520 1420419921 34785.4062
0521 1420422265 34892.7188
0522 1420424609 34869.8125
0523 1420426953 34792.5039
0524 1420429296 34795.1094
0525 1420431640 34727.1016
0526 1420433984 34586.6484
0527 1420436328 34569.8320
0528 1420438671 34599.0938
0529 1420441015 34702.0703
0530 1420443359 34688.7070
0531 1420445703 34575.9023
0532 1420448046 34581.5742
0533 1420450390 34491.6250
0534 1420452734 34662.9531
0535 1420455078 34543.1211
0536 1420457421 34552.1445
0537 1420459765 34529.4688
0538 1420462109 34374.7695
0539 1420464453 34474.7461
0540 1420466796 34410.2656
0541 1420469140 34294.6250
0542 1420471484 34323.0820
0543 1420473828 34276.0977
0544 1420476171 34214.2852
0545 1420478515 34249.2734
0546 1420480859 34323.4648
0547 1420483203 34231.1992
0548 1420485546 34282.3711
0549 1420487890 34139.2656
0550 1420490234 34141.0742
0551 1420492578 34200.8477
0552 1420494921 34115.4648
0553 1420497265 34155.4375
0554 1420499609 34108.6523
0555 1420501953 34059.5742
0556 1420504296 34043.0820
0557 1420506640 34009.3984
0558 1420508984 33865.6328
0559 1420511328 33704.7109
0560 1420513671 33744.5625
0561 1420516015 33850.3047
0562 1420518359 33793.3281
0563 1420520703 33762.9688
0564 1420523046 33729.0156
0565 1420525390 33746.9727
0566 1420527734 33664.5430
0567 1420530078 33544.1914
0568 1420532421 33480.5625
0569 1420534765 33586.5195
0570 1420537109 33580.4727
0571 1420539453 33433.1797
0572 1420541796 33334.7383
0573 1420544140 33392.2734
0574 1420546484 33338.8789
0575 1420548828 33260.3867
0576 1420551171 33252.6602
0577 1420553515 33197.6094
0578 1420555859 33186.9375
0579 1420558203 33151.5898
0580 1420560546 33228.8086
0581 1420562890 33176.2734
0582 1420565234 33156.9453
0583 1420567578 33079.9375
0584 1420569921 33043.2422
0585 1420572265 33019.2812
0586 1420574609 32796.2656
0587 1420576953 32799.9062
0588 1420579296 32665.2520
0589 1420581640 32691.5801
0590 1420583984 32819.3047
0591 1420586328 32720.6562
0592 1420588671 32610.0332
0593 1420591015 32488.6348
0594 1420593359 32569.1738
0595 1420595703 32571.3906
0596 1420598046 32516.6230
0597 1420600390 32278.1055
0598 1420602734 32304.2402
0599 1420605078 32169.1133
0600 1420607421 32151.1309
0601 1420609765 32203.6816
0602 1420612109 32218.7227
0603 1420614453 32190.8457
0604 1420616796 32133.1680
0605 1420619140 32032.8223
0606 1420621484 31876.5117
0607 1420623828 31879.4863
0608 1420626171 31991.0703
0609 1420628515 31924.1211
0610 1420630859 31883.2207
0611 1420633203 31761.4043
0612 1420635546 31805.3477
0613 1420637890 31720.2500
0614 1420640234 31694.4805
0615 1420642578 31602.1445
0616 1420644921 31515.4492
0617 1420647265 31623.4414
0618 1420649609 31441.5469
0619 1420651953 31399.7832
0620 1420654296 31433.0918
0621 1420656640 31407.3594
0622 1420658984 31303.3770
0623 1420661328 31418.7148
0624 1420663671 31379.2500
0625 1420666015 31211.2617
0626 1420668359 31287.2246
0627 1420670703 31269.1875
0628 1420673046 31202.8398
0629 1420675390 31126.2266
0630 1420677734 31116.5527
0631 1420680078 31088.9004
0632 1420682421 30978.6504
0633 1420684765 30866.9336
0634 1420687109 30915.9004
0635 1420689453 31000.1855
0636 1420691796 31044.0781
0637 1420694140 30784.5371
0638 1420696484 30733.3730
0639 1420698828 30702.8281
0640 1420701171 30708.1484
0641 1420703515 30778.1816
0642 1420705859 30648.1562
0643 1420708203 30627.9668
0644 1420710546 30695.4746
0645 1420712890 30607.6016
0646 1420715234 30559.3691
0647 1420717578 30444.1133
0648 1420719921 30502.8516
0649 1420722265 30597.7578
0650 1420724609 30504.4160
0651 1420726953 30421.1172
0652 1420729296 30420.2832
0653 1420731640 30493.5449
0654 1420733984 30410.1680
0655 1420736328 30438.5449
0656 1420738671 30529.8789
0657 1420741015 30436.2637
0658 1420743359 30387.6055
0659 1420745703 30282.4219
0660 1420748046 30362.8086
0661 1420750390 30231.0391
0662 1420752734 30273.4824
0663 1420755078 30256.0215
0664 1420757421 30220.0039
0665 1420759765 30129.4707
0666 1420762109 30103.6875
0667 1420764453 30089.8398
0668 1420766796 30114.9395
0669 1420769140 30137.9570
0670 1420771484 30171.2266
0671 1420773828 30150.4414
0672 1420776171 30186.5977
0673 1420778515 30057.8574
0674 1420780859 30184.3203
0675 1420783203 30081.9160
0676 1420785546 30081.5801
0677 1420787890 30091.4531
0678 1420790234 30073.0918
0679 1420792578 30037.8574
0680 1420794921 30077.0020
0681 1420797265 29997.5352
0682 1420799609 30163.8125
0683 1420801953 30142.4824
0684 1420804296 30130.5586
0685 1420806640 30144.5898
0686 1420808984 30188.3008
0687 1420811328 30127.2188
0688 1420813671 30087.1523
0689 1420816015 30172.7031
0690 1420818359 30144.6973
0691 1420820703 30039.9062
0692 1420823046 30132.0762
0693 1420825390 30203.8555
0694 1420827734 30239.7148
0695 1420830078 30180.1758
0696 1420832421 30090.5938
0697 1420834765 30246.1992
0698 1420837109 30207.1719
0699 1420839453 30184.3281
0700 1420841796 30192.9629
0701 1420844140 30199.0156
0702 1420846484 30206.4141
0703 1420848828 30235.7422
0704 1420851171 30232.6309
0705 1420853515 30313.6250
0706 1420855859 30309.6660
0707 1420858203 30418.7832
0708 1420860546 30292.7676
0709 1420862890 30426.0293
0710 1420865234 30399.6738
0711 1420867578 30382.1270
0712 1420869921 30548.5156
0713 1420872265 30440.5449
0714 1420874609 30449.9180
0715 1420876953 30436.1348
0716 1420879296 30507.6484
0717 1420881640 30431.9102
0718 1420883984 30487.0527
0719 1420886328 30635.8379
0720 1420888671 30652.8691
0721 1420891015 30731.1699
0722 1420893359 30737.2441
0723 1420895703 30774.1914
0724 1420898046 30671.3496
0725 1420900390 30816.0781
0726 1420902734 30801.4297
0727 1420905078 30827.1406
0728 1420907421 30800.0195
0729 1420909765 30920.3184
0730 1420912109 30962.3125
0731 1420914453 30990.9082
0732 1420916796 31011.1914
0733 1420919140 31073.6543
0734 1420921484 31087.4922
0735 1420923828 31059.8262
0736 1420926171 31190.9668
0737 1420928515 31313.8926
0738 1420930859 31348.1562
0739 1420933203 31211.9160
0740 1420935546 31343.6777
0741 1420937890 31201.4355
0742 1420940234 31353.2383
0743 1420942578 31428.9297
0744 1420944921 31464.4355
0745 1420947265 31557.3027
0746 1420949609 31449.0469
0747 1420951953 31566.2363
0748 1420954296 31537.1367
0749 1420956640 31744.3711
0750 1420958984 31740.8145
0751 1420961328 31665.3457
0752 1420963671 31788.5430
0753 1420966015 31841.8203
0754 1420968359 31792.7246
0755 1420970703 31792.5078
0756 1420973046 32110.7969
0757 1420975390 32093.7656
0758 1420977734 31957.1992
0759 1420980078 32127.1895
0760 1420982421 32182.8555
0761 1420984765 32215.6777
0762 1420987109 32260.5098
0763 1420989453 32297.6680
0764 1420991796 32340.5859
0765 1420994140 32196.0664
0766 1420996484 32290.1973
0767 1420998828 32449.5352
0768 1421001171 32535.9082
0769 1421003515 32446.4727
0770 1421005859 32469.3867
0771 1421008203 32422.3965
0772 1421010546 32574.1445
0773 1421012890 32714.0527
0774 1421015234 32759.5352
0775 1421017578 32752.8750
0776 1421019921 32688.7793
0777 1421022265 32923.7422
0778 1421024609 32959.5742
0779 1421026953 32855.6836
0780 1421029296 32935.2930
0781 1421031640 33014.8281
0782 1421033984 32996.6602
0783 1421036328 33052.1758
0784 1421038671 33082.6602
0785 1421041015 33234.5469
0786 1421043359 33336.9219
0787 1421045703 33245.6445
0788 1421048046 33180.0312
0789 1421050390 33221.3633
0790 1421052734 33150.0039
0791 1421055078 33291.6680
0792 1421057421 33365.0195
0793 1421059765 33392.5234
0794 1421062109 33488.3477
0795 1421064453 33537.6602
0796 1421066796 33560.9219
0797 1421069140 33538.5781
0798 1421071484 33426.7109
0799 1421073828 33462.1016
0800 1421076171 33499.6523
0801 1421078515 33526.3711
0802 1421080859 33557.0977
0803 1421083203 33606.8945
0804 1421085546 33731.6836
0805 1421087890 33693.0469
0806 1421090234 33575.0742
0807 1421092578 33616.1016
0808 1421094921 33640.5273
0809 1421097265 33803.1211
0810 1421099609 33789.4727
0811 1421101953 33820.6367
0812 1421104296 33931.1797
0813 1421106640 33984.4922
0814 1421108984 33829.1172
0815 1421111328 33792.7422
0816 1421113671 33805.3672
0817 1421116015 33886.6328
0818 1421118359 33741.4648
0819 1421120703 34066.2500
0820 1421123046 33926.3750
0821 1421125390 33942.0273
0822 1421127734 33900.7812
0823 1421130078 33821.7383
0824 1421132421 33875.9375
0825 1421134765 33816.7148
0826 1421137109 33732.7383
0827 1421139453 33796.1680
0828 1421141796 33806.3555
0829 1421144140 33872.7734
0830 1421146484 33812.4453
0831 1421148828 33796.4531
0832 1421151171 33723.5117
0833 1421153515 33648.3828
0834 1421155859 33677.4414
0835 1421158203 33623.9648
0836 1421160546 33672.6094
0837 1421162890 33696.4844
0838 1421165234 33602.3867
0839 1421167578 33532.1641
0840 1421169921 33387.7617
0841 1421172265 33402.2422
0842 1421174609 33410.9375
0843 1421176953 33431.3281
0844 1421179296 33391.5664
0845 1421181640 33349.6172
0846 1421183984 33282.0547
0847 1421186328 33323.2812
0848 1421188671 33233.7734
0849 1421191015 33150.4375
0850 1421193359 33116.6055
0851 1421195703 32992.3711
0852 1421198046 33115.8516
0853 1421200390 32956.2227
0854 1421202734 32769.1992
0855 1421205078 32782.6055
0856 1421207421 32825.3125
0857 1421209765 32646.6895
0858 1421212109 32694.6738
0859 1421214453 32543.7695
0860 1421216796 32531.9961
0861 1421219140 32376.4043
0862 1421221484 32328.0820
0863 1421223828 32158.3457
0864 1421226171 32127.3281
0865 1421228515 32116.4375
0866 1421230859 31898.4668
0867 1421233203 31990.2461
0868 1421235546 31822.4375
0869 1421237890 31789.5508
0870 1421240234 31612.1621
0871 1421242578 31707.0977
0872 1421244921 31510.8613
0873 1421247265 31457.6504
0874 1421249609 31304.5371
0875 1421251953 31265.1602
0876 1421254296 31066.4570
0877 1421256640 30898.2441
0878 1421258984 30977.1387
0879 1421261328 30867.8535
0880 1421263671 30677.5215
0881 1421266015 30489.1523
0882 1421268359 30385.5254
0883 1421270703 30345.3223
0884 1421273046 30310.6426
0885 1421275390 30076.9941
0886 1421277734 30022.2812
0887 1421280078 29898.0762
0888 1421282421 29856.2246
0889 1421284765 29557.0215
0890 1421287109 29490.9902
0891 1421289453 29412.6035
0892 1421291796 29206.7891
0893 1421294140 29105.3613
0894 1421296484 28944.6250
0895 1421298828 28902.0332
0896 1421301171 28755.9980
0897 1421303515 28491.9434
0898 1421305859 28440.4004
0899 1421308203 28240.2168
0900 1421310546 28146.7559
0901 1421312890 28010.3574
0902 1421315234 27816.6484
0903 1421317578 27744.6016
0904 1421319921 27524.7227
0905 1421322265 27293.7441
0906 1421324609 27182.3105
0907 1421326953 27056.0938
0908 1421329296 27002.8750
0909 1421331640 26800.9102
0910 1421333984 26639.3418
0911 1421336328 26458.7246
0912 1421338671 26311.3672
0913 1421341015 26034.9707
0914 1421343359 26042.3535
0915 1421345703 25745.2598
0916 1421348046 25666.6504
0917 1421350390 25514.3984
0918 1421352734 25286.4863
0919 1421355078 25066.1445
0920 1421357421 24953.8516
0921 1421359765 24870.0703
0922 1421362109 24561.9395
0923 1421364453 24452.9824
0924 1421366796 24345.6270
0925 1421369140 24109.0820
0926 1421371484 23880.4883
0927 1421373828 23726.2500
0928 1421376171 23502.4746
0929 1421378515 23331.4727
0930 1421380859 23158.5938
0931 1421383203 23062.5703
0932 1421385546 22830.6582
0933 1421387890 22648.7285
0934 1421390234 22519.8125
0935 1421392578 22396.3145
0936 1421394921 22093.6328
0937 1421397265 22023.1895
0938 1421399609 21772.8965
0939 1421401953 21591.4141
0940 1421404296 21443.1602
0941 1421406640 21334.4785
0942 1421408984 21062.7793
0943 1421411328 20911.1582
0944 1421413671 20688.6777
0945 1421416015 20523.5957
0946 1421418359 20376.2617
0947 1421420703 20156.3047
0948 1421423046 20086.0938
0949 1421425390 19840.8418
0950 1421427734 19629.8516
0951 1421430078 19440.6895
0952 1421432421 19271.3809
0953 1421434765 19087.5352
0954 1421437109 18957.7559
0955 1421439453 18758.1914
0956 1421441796 18641.1777
0957 1421444140 18394.1836
0958 1421446484 18229.7441
0959 1421448828 18064.2363
0960 1421451171 17906.7441
0961 1421453515 17702.0723
0962 1421455859 17604.9199
0963 1421458203 17427.8848
0964 1421460546 17215.2695
0965 1421462890 17053.1348
0966 1421465234 16895.7441
0967 1421467578 16772.3066
0968 1421469921 16634.0137
0969 1421472265 16414.2773
0970 1421474609 16254.0518
0971 1421476953 16075.8457
0972 1421479296 15909.3770
0973 1421481640 15769.3623
0974 1421483984 15569.7461
0975 1421486328 15485.5527
0976 1421488671 15350.4912
0977 1421491015 15228.4395
0978 1421493359 15010.5176
0979 1421495703 14918.7148
0980 1421498046 14749.7568
0981 1421500390 14557.1553
0982 1421502734 14492.3584
0983 1421505078 14310.1309
0984 1421507421 14123.1426
0985 1421509765 14015.9512
0986 1421512109 13848.6797
0987 1421514453 13798.7344
0988 1421516796 13615.5977
0989 1421519140 13493.0342
0990 1421521484 13306.0859
0991 1421523828 13210.9336
0992 1421526171 13054.9834
0993 1421528515 12956.9268
0994 1421530859 12863.3955
0995 1421533203 12741.1963
0996 1421535546 12630.4854
0997 1421537890 12474.3975
0998 1421540234 12418.4912
0999 1421542578 12292.5146
1000 1421544921 12190.9238
1001 1421547265 12099.0205
1002 1421549609 11973.5469
1003 1421551953 11849.6523
1004 1421554296 11765.3223
1005 1421556640 11663.6943
1006 1421558984 11570.7441
1007 1421561328 11457.6494
1008 1421563671 11399.7842
1009 1421566015 11271.0020
1010 1421568359 11243.0537
1011 1421570703 11148.3154
1012 1421573046 11055.8447
1013 1421575390 10960.5156
1014 1421577734 10881.1836
1015 1421580078 10813.9990
1016 1421582421 10769.2969
1017 1421584765 10656.4990
1018 1421587109 10624.1123
1019 1421589453 10512.5967
1020 1421591796 10466.9072
1021 1421594140 10408.2861
1022 1421596484 10315.0381
1023 1421598828 10264.0703
